##NAMES=Metauranocircite
##RRUFFID=R050575
##IDEAL CHEMISTRY=Ba(U^6+^O_2_)_2_(PO_4_)_2_&#183;8H_2_O
##LOCALITY=Voightland, Saxony, Germany
##OWNER=RRUFF
##SOURCE=University of Arizona Mineral Museum
##DESCRIPTION=Yellow platy crystals with minor intergrown quartz
##DIFFRACTION SAMPLE DESCRIPTION=Single crystal, powder profile is calculated
##STATUS=The identification of this mineral is confirmed by single-crystal X-ray diffraction and chemical analysis.
##URL=rruff.info/R050575
##MEASURED CHEMISTRY=(Ba_0.98_Ca_0.02_)_Σ=1_(U_1.00_O_2_)_2_(P_1.00_O_4_)_2_·6.13H_2_O
##CELL PARAMETERS=a: 7.01(1) b: 17.00(3) c: 7.02(1) alpha: 90 beta: 90.13(4) gamma: 90 volume: 837(3) crystal system: monoclinic
0.000, 0.000
0.010, 0.000
0.020, 0.000
0.030, 0.000
0.040, 0.000
0.050, 0.000
0.060, 0.000
0.070, 0.000
0.080, 0.000
0.090, 0.000
0.100, 0.000
0.110, 0.000
0.120, 0.000
0.130, 0.000
0.140, 0.000
0.150, 0.000
0.160, 0.000
0.170, 0.000
0.180, 0.000
0.190, 0.000
0.200, 0.000
0.210, 0.000
0.220, 0.000
0.230, 0.000
0.240, 0.000
0.250, 0.000
0.260, 0.000
0.270, 0.000
0.280, 0.000
0.290, 0.000
0.300, 0.000
0.310, 0.000
0.320, 0.000
0.330, 0.000
0.340, 0.000
0.350, 0.000
0.360, 0.000
0.370, 0.000
0.380, 0.000
0.390, 0.000
0.400, 0.000
0.410, 0.000
0.420, 0.000
0.430, 0.000
0.440, 0.000
0.450, 0.000
0.460, 0.000
0.470, 0.000
0.480, 0.000
0.490, 0.000
0.500, 0.000
0.510, 0.000
0.520, 0.000
0.530, 0.000
0.540, 0.000
0.550, 0.000
0.560, 0.000
0.570, 0.000
0.580, 0.000
0.590, 0.000
0.600, 0.000
0.610, 0.000
0.620, 0.000
0.630, 0.000
0.640, 0.000
0.650, 0.000
0.660, 0.000
0.670, 0.000
0.680, 0.000
0.690, 0.000
0.700, 0.000
0.710, 0.000
0.720, 0.000
0.730, 0.000
0.740, 0.000
0.750, 0.000
0.760, 0.000
0.770, 0.000
0.780, 0.000
0.790, 0.000
0.800, 0.000
0.810, 0.000
0.820, 0.000
0.830, 0.000
0.840, 0.000
0.850, 0.000
0.860, 0.000
0.870, 0.000
0.880, 0.000
0.890, 0.000
0.900, 0.000
0.910, 0.000
0.920, 0.000
0.930, 0.000
0.940, 0.000
0.950, 0.000
0.960, 0.000
0.970, 0.000
0.980, 0.000
0.990, 0.000
1.000, 0.000
1.010, 0.000
1.020, 0.000
1.030, 0.000
1.040, 0.000
1.050, 0.000
1.060, 0.000
1.070, 0.000
1.080, 0.000
1.090, 0.000
1.100, 0.000
1.110, 0.000
1.120, 0.000
1.130, 0.000
1.140, 0.000
1.150, 0.000
1.160, 0.000
1.170, 0.000
1.180, 0.000
1.190, 0.000
1.200, 0.000
1.210, 0.000
1.220, 0.000
1.230, 0.000
1.240, 0.000
1.250, 0.000
1.260, 0.000
1.270, 0.000
1.280, 0.000
1.290, 0.000
1.300, 0.000
1.310, 0.000
1.320, 0.000
1.330, 0.000
1.340, 0.000
1.350, 0.000
1.360, 0.000
1.370, 0.000
1.380, 0.000
1.390, 0.000
1.400, 0.000
1.410, 0.000
1.420, 0.000
1.430, 0.000
1.440, 0.000
1.450, 0.000
1.460, 0.000
1.470, 0.000
1.480, 0.000
1.490, 0.000
1.500, 0.000
1.510, 0.000
1.520, 0.000
1.530, 0.000
1.540, 0.000
1.550, 0.000
1.560, 0.000
1.570, 0.000
1.580, 0.000
1.590, 0.000
1.600, 0.000
1.610, 0.000
1.620, 0.000
1.630, 0.000
1.640, 0.000
1.650, 0.000
1.660, 0.000
1.670, 0.000
1.680, 0.000
1.690, 0.000
1.700, 0.000
1.710, 0.000
1.720, 0.000
1.730, 0.000
1.740, 0.000
1.750, 0.000
1.760, 0.000
1.770, 0.000
1.780, 0.000
1.790, 0.000
1.800, 0.000
1.810, 0.000
1.820, 0.000
1.830, 0.000
1.840, 0.000
1.850, 0.000
1.860, 0.000
1.870, 0.000
1.880, 0.000
1.890, 0.000
1.900, 0.000
1.910, 0.000
1.920, 0.000
1.930, 0.000
1.940, 0.000
1.950, 0.000
1.960, 0.000
1.970, 0.000
1.980, 0.000
1.990, 0.000
2.000, 0.000
2.010, 0.000
2.020, 0.000
2.030, 0.000
2.040, 0.000
2.050, 0.000
2.060, 0.000
2.070, 0.000
2.080, 0.000
2.090, 0.000
2.100, 0.000
2.110, 0.000
2.120, 0.000
2.130, 0.000
2.140, 0.000
2.150, 0.000
2.160, 0.000
2.170, 0.000
2.180, 0.000
2.190, 0.000
2.200, 0.000
2.210, 0.000
2.220, 0.000
2.230, 0.000
2.240, 0.000
2.250, 0.000
2.260, 0.000
2.270, 0.000
2.280, 0.000
2.290, 0.000
2.300, 0.000
2.310, 0.000
2.320, 0.000
2.330, 0.000
2.340, 0.000
2.350, 0.000
2.360, 0.000
2.370, 0.000
2.380, 0.000
2.390, 0.000
2.400, 0.000
2.410, 0.000
2.420, 0.000
2.430, 0.000
2.440, 0.000
2.450, 0.000
2.460, 0.000
2.470, 0.000
2.480, 0.000
2.490, 0.000
2.500, 0.000
2.510, 0.000
2.520, 0.000
2.530, 0.000
2.540, 0.000
2.550, 0.000
2.560, 0.000
2.570, 0.000
2.580, 0.000
2.590, 0.000
2.600, 0.000
2.610, 0.000
2.620, 0.000
2.630, 0.000
2.640, 0.000
2.650, 0.000
2.660, 0.000
2.670, 0.000
2.680, 0.000
2.690, 0.000
2.700, 0.000
2.710, 0.000
2.720, 0.000
2.730, 0.000
2.740, 0.000
2.750, 0.000
2.760, 0.000
2.770, 0.000
2.780, 0.000
2.790, 0.000
2.800, 0.000
2.810, 0.000
2.820, 0.000
2.830, 0.000
2.840, 0.000
2.850, 0.000
2.860, 0.000
2.870, 0.000
2.880, 0.000
2.890, 0.000
2.900, 0.000
2.910, 0.000
2.920, 0.000
2.930, 0.000
2.940, 0.000
2.950, 0.000
2.960, 0.000
2.970, 0.000
2.980, 0.000
2.990, 0.000
3.000, 0.000
3.010, 0.000
3.020, 0.000
3.030, 0.000
3.040, 0.000
3.050, 0.000
3.060, 0.000
3.070, 0.000
3.080, 0.000
3.090, 0.000
3.100, 0.000
3.110, 0.000
3.120, 0.000
3.130, 0.000
3.140, 0.000
3.150, 0.000
3.160, 0.000
3.170, 0.000
3.180, 0.000
3.190, 0.000
3.200, 0.000
3.210, 0.000
3.220, 0.000
3.230, 0.000
3.240, 0.000
3.250, 0.000
3.260, 0.000
3.270, 0.000
3.280, 0.000
3.290, 0.000
3.300, 0.000
3.310, 0.000
3.320, 0.000
3.330, 0.000
3.340, 0.000
3.350, 0.000
3.360, 0.000
3.370, 0.000
3.380, 0.000
3.390, 0.000
3.400, 0.000
3.410, 0.000
3.420, 0.000
3.430, 0.000
3.440, 0.000
3.450, 0.000
3.460, 0.000
3.470, 0.000
3.480, 0.000
3.490, 0.000
3.500, 0.000
3.510, 0.000
3.520, 0.000
3.530, 0.000
3.540, 0.000
3.550, 0.000
3.560, 0.000
3.570, 0.000
3.580, 0.000
3.590, 0.000
3.600, 0.000
3.610, 0.000
3.620, 0.000
3.630, 0.000
3.640, 0.000
3.650, 0.000
3.660, 0.000
3.670, 0.000
3.680, 0.000
3.690, 0.000
3.700, 0.000
3.710, 0.000
3.720, 0.000
3.730, 0.000
3.740, 0.000
3.750, 0.000
3.760, 0.000
3.770, 0.000
3.780, 0.000
3.790, 0.000
3.800, 0.000
3.810, 0.000
3.820, 0.000
3.830, 0.000
3.840, 0.000
3.850, 0.000
3.860, 0.000
3.870, 0.000
3.880, 0.000
3.890, 0.000
3.900, 0.000
3.910, 0.000
3.920, 0.000
3.930, 0.000
3.940, 0.000
3.950, 0.000
3.960, 0.000
3.970, 0.000
3.980, 0.000
3.990, 0.000
4.000, 0.000
4.010, 0.000
4.020, 0.000
4.030, 0.000
4.040, 0.000
4.050, 0.000
4.060, 0.000
4.070, 0.000
4.080, 0.000
4.090, 0.000
4.100, 0.000
4.110, 0.000
4.120, 0.000
4.130, 0.000
4.140, 0.000
4.150, 0.000
4.160, 0.000
4.170, 0.000
4.180, 0.000
4.190, 0.000
4.200, 0.000
4.210, 0.000
4.220, 0.000
4.230, 0.000
4.240, 0.000
4.250, 0.000
4.260, 0.000
4.270, 0.000
4.280, 0.000
4.290, 0.000
4.300, 0.000
4.310, 0.000
4.320, 0.000
4.330, 0.000
4.340, 0.000
4.350, 0.000
4.360, 0.000
4.370, 0.000
4.380, 0.000
4.390, 0.000
4.400, 0.000
4.410, 0.000
4.420, 0.000
4.430, 0.000
4.440, 0.000
4.450, 0.000
4.460, 0.000
4.470, 0.000
4.480, 0.000
4.490, 0.000
4.500, 0.000
4.510, 0.000
4.520, 0.000
4.530, 0.000
4.540, 0.000
4.550, 0.000
4.560, 0.000
4.570, 0.000
4.580, 0.000
4.590, 0.000
4.600, 0.000
4.610, 0.000
4.620, 0.000
4.630, 0.000
4.640, 0.000
4.650, 0.000
4.660, 0.000
4.670, 0.000
4.680, 0.000
4.690, 0.000
4.700, 0.000
4.710, 0.000
4.720, 0.000
4.730, 0.000
4.740, 0.000
4.750, 0.000
4.760, 0.000
4.770, 0.000
4.780, 0.000
4.790, 0.000
4.800, 0.000
4.810, 0.000
4.820, 0.000
4.830, 0.000
4.840, 0.000
4.850, 0.000
4.860, 0.000
4.870, 0.000
4.880, 0.000
4.890, 0.000
4.900, 0.000
4.910, 0.000
4.920, 0.000
4.930, 0.000
4.940, 0.000
4.950, 0.000
4.960, 0.000
4.970, 0.000
4.980, 0.000
4.990, 0.000
5.000, 0.000
5.010, 0.000
5.020, 0.000
5.030, 0.000
5.040, 0.000
5.050, 0.000
5.060, 0.000
5.070, 0.000
5.080, 0.000
5.090, 0.000
5.100, 0.000
5.110, 0.000
5.120, 0.000
5.130, 0.000
5.140, 0.000
5.150, 0.000
5.160, 0.000
5.170, 0.000
5.180, 0.000
5.190, 0.000
5.200, 0.000
5.210, 0.000
5.220, 0.000
5.230, 0.000
5.240, 0.000
5.250, 0.000
5.260, 0.000
5.270, 0.000
5.280, 0.000
5.290, 0.000
5.300, 0.000
5.310, 0.000
5.320, 0.000
5.330, 0.000
5.340, 0.000
5.350, 0.000
5.360, 0.000
5.370, 0.000
5.380, 0.000
5.390, 0.000
5.400, 0.000
5.410, 0.000
5.420, 0.000
5.430, 0.000
5.440, 0.000
5.450, 0.000
5.460, 0.000
5.470, 0.000
5.480, 0.000
5.490, 0.000
5.500, 0.000
5.510, 0.000
5.520, 0.000
5.530, 0.000
5.540, 0.000
5.550, 0.000
5.560, 0.000
5.570, 0.000
5.580, 0.000
5.590, 0.000
5.600, 0.000
5.610, 0.000
5.620, 0.000
5.630, 0.000
5.640, 0.000
5.650, 0.000
5.660, 0.000
5.670, 0.000
5.680, 0.000
5.690, 0.000
5.700, 0.000
5.710, 0.000
5.720, 0.000
5.730, 0.000
5.740, 0.000
5.750, 0.000
5.760, 0.000
5.770, 0.000
5.780, 0.000
5.790, 0.000
5.800, 0.000
5.810, 0.000
5.820, 0.000
5.830, 0.000
5.840, 0.000
5.850, 0.000
5.860, 0.000
5.870, 0.000
5.880, 0.000
5.890, 0.000
5.900, 0.000
5.910, 0.000
5.920, 0.000
5.930, 0.000
5.940, 0.000
5.950, 0.000
5.960, 0.000
5.970, 0.000
5.980, 0.000
5.990, 0.000
6.000, 0.000
6.010, 0.000
6.020, 0.000
6.030, 0.000
6.040, 0.000
6.050, 0.000
6.060, 0.000
6.070, 0.000
6.080, 0.000
6.090, 0.000
6.100, 0.000
6.110, 0.000
6.120, 0.000
6.130, 0.000
6.140, 0.000
6.150, 0.000
6.160, 0.000
6.170, 0.000
6.180, 0.000
6.190, 0.000
6.200, 0.000
6.210, 0.000
6.220, 0.000
6.230, 0.000
6.240, 0.000
6.250, 0.000
6.260, 0.000
6.270, 0.000
6.280, 0.000
6.290, 0.000
6.300, 0.000
6.310, 0.000
6.320, 0.000
6.330, 0.000
6.340, 0.000
6.350, 0.000
6.360, 0.000
6.370, 0.000
6.380, 0.000
6.390, 0.000
6.400, 0.000
6.410, 0.000
6.420, 0.000
6.430, 0.000
6.440, 0.000
6.450, 0.000
6.460, 0.000
6.470, 0.000
6.480, 0.000
6.490, 0.000
6.500, 0.000
6.510, 0.000
6.520, 0.000
6.530, 0.000
6.540, 0.000
6.550, 0.000
6.560, 0.000
6.570, 0.000
6.580, 0.000
6.590, 0.000
6.600, 0.000
6.610, 0.000
6.620, 0.000
6.630, 0.000
6.640, 0.000
6.650, 0.000
6.660, 0.000
6.670, 0.000
6.680, 0.000
6.690, 0.000
6.700, 0.000
6.710, 0.000
6.720, 0.000
6.730, 0.000
6.740, 0.000
6.750, 0.000
6.760, 0.000
6.770, 0.000
6.780, 0.000
6.790, 0.000
6.800, 0.000
6.810, 0.000
6.820, 0.000
6.830, 0.000
6.840, 0.000
6.850, 0.000
6.860, 0.000
6.870, 0.000
6.880, 0.000
6.890, 0.000
6.900, 0.000
6.910, 0.000
6.920, 0.000
6.930, 0.000
6.940, 0.000
6.950, 0.000
6.960, 0.000
6.970, 0.000
6.980, 0.000
6.990, 0.000
7.000, 0.000
7.010, 0.000
7.020, 0.000
7.030, 0.000
7.040, 0.000
7.050, 0.000
7.060, 0.000
7.070, 0.000
7.080, 0.000
7.090, 0.000
7.100, 0.000
7.110, 0.000
7.120, 0.000
7.130, 0.000
7.140, 0.000
7.150, 0.000
7.160, 0.000
7.170, 0.000
7.180, 0.000
7.190, 0.000
7.200, 0.000
7.210, 0.000
7.220, 0.000
7.230, 0.000
7.240, 0.000
7.250, 0.000
7.260, 0.000
7.270, 0.000
7.280, 0.000
7.290, 0.000
7.300, 0.000
7.310, 0.000
7.320, 0.000
7.330, 0.000
7.340, 0.000
7.350, 0.000
7.360, 0.000
7.370, 0.000
7.380, 0.000
7.390, 0.000
7.400, 0.000
7.410, 0.000
7.420, 0.000
7.430, 0.000
7.440, 0.000
7.450, 0.000
7.460, 0.000
7.470, 0.000
7.480, 0.000
7.490, 0.000
7.500, 0.000
7.510, 0.000
7.520, 0.000
7.530, 0.000
7.540, 0.000
7.550, 0.000
7.560, 0.000
7.570, 0.000
7.580, 0.000
7.590, 0.000
7.600, 0.000
7.610, 0.000
7.620, 0.000
7.630, 0.000
7.640, 0.000
7.650, 0.000
7.660, 0.000
7.670, 0.000
7.680, 0.000
7.690, 0.000
7.700, 0.000
7.710, 0.000
7.720, 0.000
7.730, 0.000
7.740, 0.000
7.750, 0.000
7.760, 0.000
7.770, 0.000
7.780, 0.000
7.790, 0.000
7.800, 0.000
7.810, 0.000
7.820, 0.000
7.830, 0.000
7.840, 0.000
7.850, 0.000
7.860, 0.000
7.870, 0.000
7.880, 0.000
7.890, 0.000
7.900, 0.000
7.910, 0.000
7.920, 0.000
7.930, 0.000
7.940, 0.000
7.950, 0.000
7.960, 0.000
7.970, 0.000
7.980, 0.000
7.990, 0.000
8.000, 0.000
8.010, 0.000
8.020, 0.000
8.030, 0.000
8.040, 0.000
8.050, 0.000
8.060, 0.000
8.070, 0.000
8.080, 0.000
8.090, 0.000
8.100, 0.000
8.110, 0.000
8.120, 0.000
8.130, 0.000
8.140, 0.000
8.150, 0.000
8.160, 0.000
8.170, 0.000
8.180, 0.000
8.190, 0.000
8.200, 0.000
8.210, 0.000
8.220, 0.000
8.230, 0.000
8.240, 0.000
8.250, 0.000
8.260, 0.000
8.270, 0.000
8.280, 0.000
8.290, 0.000
8.300, 0.000
8.310, 0.000
8.320, 0.000
8.330, 0.000
8.340, 0.000
8.350, 0.000
8.360, 0.000
8.370, 0.000
8.380, 0.000
8.390, 0.000
8.400, 0.000
8.410, 0.000
8.420, 0.000
8.430, 0.000
8.440, 0.000
8.450, 0.000
8.460, 0.000
8.470, 0.000
8.480, 0.000
8.490, 0.000
8.500, 0.000
8.510, 0.000
8.520, 0.000
8.530, 0.000
8.540, 0.000
8.550, 0.000
8.560, 0.000
8.570, 0.000
8.580, 0.000
8.590, 0.000
8.600, 0.000
8.610, 0.000
8.620, 0.000
8.630, 0.000
8.640, 0.000
8.650, 0.000
8.660, 0.000
8.670, 0.000
8.680, 0.000
8.690, 0.000
8.700, 0.000
8.710, 0.000
8.720, 0.000
8.730, 0.000
8.740, 0.000
8.750, 0.000
8.760, 0.000
8.770, 0.000
8.780, 0.000
8.790, 0.000
8.800, 0.000
8.810, 0.000
8.820, 0.000
8.830, 0.000
8.840, 0.000
8.850, 0.000
8.860, 0.000
8.870, 0.000
8.880, 0.000
8.890, 0.000
8.900, 0.000
8.910, 0.000
8.920, 0.000
8.930, 0.000
8.940, 0.000
8.950, 0.000
8.960, 0.000
8.970, 0.000
8.980, 0.000
8.990, 0.000
9.000, 0.000
9.010, 0.000
9.020, 0.000
9.030, 0.000
9.040, 0.000
9.050, 0.000
9.060, 0.000
9.070, 0.000
9.080, 0.000
9.090, 0.000
9.100, 0.000
9.110, 0.000
9.120, 0.000
9.130, 0.000
9.140, 0.000
9.150, 0.000
9.160, 0.000
9.170, 0.000
9.180, 0.000
9.190, 0.000
9.200, 0.000
9.210, 0.000
9.220, 0.000
9.230, 0.000
9.240, 0.000
9.250, 0.000
9.260, 0.000
9.270, 0.000
9.280, 0.000
9.290, 0.000
9.300, 0.000
9.310, 0.000
9.320, 0.000
9.330, 0.000
9.340, 0.000
9.350, 0.000
9.360, 0.000
9.370, 0.000
9.380, 0.000
9.390, 0.000
9.400, 0.000
9.410, 0.000
9.420, 0.000
9.430, 0.000
9.440, 0.000
9.450, 0.000
9.460, 0.000
9.470, 0.000
9.480, 0.000
9.490, 0.000
9.500, 0.000
9.510, 0.000
9.520, 0.000
9.530, 0.000
9.540, 0.000
9.550, 0.000
9.560, 0.000
9.570, 0.000
9.580, 0.000
9.590, 0.000
9.600, 0.000
9.610, 0.000
9.620, 0.000
9.630, 0.000
9.640, 0.000
9.650, 0.000
9.660, 0.000
9.670, 0.000
9.680, 0.000
9.690, 0.000
9.700, 0.000
9.710, 0.000
9.720, 0.000
9.730, 0.000
9.740, 0.000
9.750, 0.000
9.760, 0.000
9.770, 0.000
9.780, 0.000
9.790, 0.000
9.800, 0.000
9.810, 0.000
9.820, 0.000
9.830, 0.000
9.840, 0.000
9.850, 0.000
9.860, 0.000
9.870, 0.000
9.880, 0.000
9.890, 0.000
9.900, 0.000
9.910, 0.000
9.920, 0.000
9.930, 0.000
9.940, 0.000
9.950, 0.000
9.960, 0.000
9.970, 0.000
9.980, 0.000
9.990, 0.000
10.000, 0.000
10.010, 0.000
10.020, 0.000
10.030, 0.000
10.040, 0.000
10.050, 0.000
10.060, 0.000
10.070, 0.000
10.080, 0.000
10.090, 0.000
10.100, 0.000
10.110, 0.000
10.120, 0.000
10.130, 0.000
10.140, 0.000
10.150, 0.000
10.160, 0.000
10.170, 0.000
10.180, 0.000
10.190, 0.000
10.200, 0.000
10.210, 0.000
10.220, 0.000
10.230, 0.000
10.240, 0.000
10.250, 0.000
10.260, 0.000
10.270, 0.001
10.280, 0.004
10.290, 0.021
10.300, 0.089
10.310, 0.328
10.320, 1.050
10.330, 2.934
10.340, 7.161
10.350, 15.287
10.360, 28.594
10.370, 46.969
10.380, 67.960
10.390, 86.936
10.400, 98.737
10.410, 100.000
10.420, 90.675
10.430, 73.823
10.440, 54.028
10.450, 35.514
10.460, 20.911
10.470, 10.988
10.480, 5.130
10.490, 2.119
10.500, 0.771
10.510, 0.247
10.520, 0.069
10.530, 0.017
10.540, 0.004
10.550, 0.001
10.560, 0.000
10.570, 0.000
10.580, 0.000
10.590, 0.000
10.600, 0.000
10.610, 0.000
10.620, 0.000
10.630, 0.000
10.640, 0.000
10.650, 0.000
10.660, 0.000
10.670, 0.000
10.680, 0.000
10.690, 0.000
10.700, 0.000
10.710, 0.000
10.720, 0.000
10.730, 0.000
10.740, 0.000
10.750, 0.000
10.760, 0.000
10.770, 0.000
10.780, 0.000
10.790, 0.000
10.800, 0.000
10.810, 0.000
10.820, 0.000
10.830, 0.000
10.840, 0.000
10.850, 0.000
10.860, 0.000
10.870, 0.000
10.880, 0.000
10.890, 0.000
10.900, 0.000
10.910, 0.000
10.920, 0.000
10.930, 0.000
10.940, 0.000
10.950, 0.000
10.960, 0.000
10.970, 0.000
10.980, 0.000
10.990, 0.000
11.000, 0.000
11.010, 0.000
11.020, 0.000
11.030, 0.000
11.040, 0.000
11.050, 0.000
11.060, 0.000
11.070, 0.000
11.080, 0.000
11.090, 0.000
11.100, 0.000
11.110, 0.000
11.120, 0.000
11.130, 0.000
11.140, 0.000
11.150, 0.000
11.160, 0.000
11.170, 0.000
11.180, 0.000
11.190, 0.000
11.200, 0.000
11.210, 0.000
11.220, 0.000
11.230, 0.000
11.240, 0.000
11.250, 0.000
11.260, 0.000
11.270, 0.000
11.280, 0.000
11.290, 0.000
11.300, 0.000
11.310, 0.000
11.320, 0.000
11.330, 0.000
11.340, 0.000
11.350, 0.000
11.360, 0.000
11.370, 0.000
11.380, 0.000
11.390, 0.000
11.400, 0.000
11.410, 0.000
11.420, 0.000
11.430, 0.000
11.440, 0.000
11.450, 0.000
11.460, 0.000
11.470, 0.000
11.480, 0.000
11.490, 0.000
11.500, 0.000
11.510, 0.000
11.520, 0.000
11.530, 0.000
11.540, 0.000
11.550, 0.000
11.560, 0.000
11.570, 0.000
11.580, 0.000
11.590, 0.000
11.600, 0.000
11.610, 0.000
11.620, 0.000
11.630, 0.000
11.640, 0.000
11.650, 0.000
11.660, 0.000
11.670, 0.000
11.680, 0.000
11.690, 0.000
11.700, 0.000
11.710, 0.000
11.720, 0.000
11.730, 0.000
11.740, 0.000
11.750, 0.000
11.760, 0.000
11.770, 0.000
11.780, 0.000
11.790, 0.000
11.800, 0.000
11.810, 0.000
11.820, 0.000
11.830, 0.000
11.840, 0.000
11.850, 0.000
11.860, 0.000
11.870, 0.000
11.880, 0.000
11.890, 0.000
11.900, 0.000
11.910, 0.000
11.920, 0.000
11.930, 0.000
11.940, 0.000
11.950, 0.000
11.960, 0.000
11.970, 0.000
11.980, 0.000
11.990, 0.000
12.000, 0.000
12.010, 0.000
12.020, 0.000
12.030, 0.000
12.040, 0.000
12.050, 0.000
12.060, 0.000
12.070, 0.000
12.080, 0.000
12.090, 0.000
12.100, 0.000
12.110, 0.000
12.120, 0.000
12.130, 0.000
12.140, 0.000
12.150, 0.000
12.160, 0.000
12.170, 0.000
12.180, 0.000
12.190, 0.000
12.200, 0.000
12.210, 0.000
12.220, 0.000
12.230, 0.000
12.240, 0.000
12.250, 0.000
12.260, 0.000
12.270, 0.000
12.280, 0.000
12.290, 0.000
12.300, 0.000
12.310, 0.000
12.320, 0.000
12.330, 0.000
12.340, 0.000
12.350, 0.000
12.360, 0.000
12.370, 0.000
12.380, 0.000
12.390, 0.000
12.400, 0.000
12.410, 0.000
12.420, 0.000
12.430, 0.000
12.440, 0.000
12.450, 0.000
12.460, 0.000
12.470, 0.000
12.480, 0.000
12.490, 0.001
12.500, 0.002
12.510, 0.009
12.520, 0.029
12.530, 0.084
12.540, 0.218
12.550, 0.500
12.560, 1.023
12.570, 1.864
12.580, 3.033
12.590, 4.417
12.600, 5.773
12.610, 6.795
12.620, 7.236
12.630, 7.006
12.640, 6.195
12.650, 5.018
12.660, 3.724
12.670, 2.526
12.680, 1.557
12.690, 0.866
12.700, 0.432
12.710, 0.192
12.720, 0.076
12.730, 0.026
12.740, 0.008
12.750, 0.002
12.760, 0.001
12.770, 0.000
12.780, 0.000
12.790, 0.000
12.800, 0.000
12.810, 0.000
12.820, 0.000
12.830, 0.000
12.840, 0.000
12.850, 0.000
12.860, 0.000
12.870, 0.000
12.880, 0.000
12.890, 0.000
12.900, 0.000
12.910, 0.000
12.920, 0.000
12.930, 0.000
12.940, 0.000
12.950, 0.000
12.960, 0.000
12.970, 0.000
12.980, 0.000
12.990, 0.000
13.000, 0.000
13.010, 0.000
13.020, 0.000
13.030, 0.000
13.040, 0.000
13.050, 0.000
13.060, 0.000
13.070, 0.000
13.080, 0.000
13.090, 0.000
13.100, 0.000
13.110, 0.000
13.120, 0.000
13.130, 0.000
13.140, 0.000
13.150, 0.000
13.160, 0.000
13.170, 0.000
13.180, 0.000
13.190, 0.000
13.200, 0.000
13.210, 0.000
13.220, 0.000
13.230, 0.000
13.240, 0.000
13.250, 0.000
13.260, 0.000
13.270, 0.000
13.280, 0.000
13.290, 0.000
13.300, 0.000
13.310, 0.000
13.320, 0.000
13.330, 0.000
13.340, 0.000
13.350, 0.000
13.360, 0.000
13.370, 0.000
13.380, 0.000
13.390, 0.000
13.400, 0.000
13.410, 0.000
13.420, 0.000
13.430, 0.000
13.440, 0.000
13.450, 0.000
13.460, 0.000
13.470, 0.000
13.480, 0.000
13.490, 0.000
13.500, 0.000
13.510, 0.000
13.520, 0.002
13.530, 0.010
13.540, 0.037
13.550, 0.124
13.560, 0.368
13.570, 0.960
13.580, 2.206
13.590, 4.476
13.600, 8.037
13.610, 12.811
13.620, 18.208
13.630, 23.203
13.640, 26.682
13.650, 27.889
13.660, 26.686
13.670, 23.511
13.680, 19.132
13.690, 14.376
13.700, 9.944
13.710, 6.296
13.720, 3.627
13.730, 1.888
13.740, 0.884
13.750, 0.370
13.760, 0.138
13.770, 0.046
13.780, 0.013
13.790, 0.003
13.800, 0.001
13.810, 0.000
13.820, 0.000
13.830, 0.000
13.840, 0.000
13.850, 0.000
13.860, 0.000
13.870, 0.000
13.880, 0.000
13.890, 0.000
13.900, 0.000
13.910, 0.000
13.920, 0.000
13.930, 0.000
13.940, 0.000
13.950, 0.000
13.960, 0.000
13.970, 0.000
13.980, 0.000
13.990, 0.000
14.000, 0.000
14.010, 0.000
14.020, 0.000
14.030, 0.000
14.040, 0.000
14.050, 0.000
14.060, 0.000
14.070, 0.000
14.080, 0.000
14.090, 0.000
14.100, 0.000
14.110, 0.000
14.120, 0.000
14.130, 0.000
14.140, 0.000
14.150, 0.000
14.160, 0.000
14.170, 0.000
14.180, 0.000
14.190, 0.000
14.200, 0.000
14.210, 0.000
14.220, 0.000
14.230, 0.000
14.240, 0.000
14.250, 0.000
14.260, 0.000
14.270, 0.000
14.280, 0.000
14.290, 0.000
14.300, 0.000
14.310, 0.000
14.320, 0.000
14.330, 0.000
14.340, 0.000
14.350, 0.000
14.360, 0.000
14.370, 0.000
14.380, 0.000
14.390, 0.000
14.400, 0.000
14.410, 0.000
14.420, 0.000
14.430, 0.000
14.440, 0.000
14.450, 0.000
14.460, 0.000
14.470, 0.000
14.480, 0.000
14.490, 0.000
14.500, 0.000
14.510, 0.000
14.520, 0.000
14.530, 0.000
14.540, 0.000
14.550, 0.000
14.560, 0.000
14.570, 0.000
14.580, 0.000
14.590, 0.000
14.600, 0.000
14.610, 0.000
14.620, 0.000
14.630, 0.000
14.640, 0.000
14.650, 0.000
14.660, 0.000
14.670, 0.000
14.680, 0.000
14.690, 0.000
14.700, 0.000
14.710, 0.000
14.720, 0.000
14.730, 0.000
14.740, 0.000
14.750, 0.000
14.760, 0.000
14.770, 0.000
14.780, 0.000
14.790, 0.000
14.800, 0.000
14.810, 0.000
14.820, 0.000
14.830, 0.000
14.840, 0.000
14.850, 0.000
14.860, 0.000
14.870, 0.000
14.880, 0.000
14.890, 0.000
14.900, 0.000
14.910, 0.000
14.920, 0.000
14.930, 0.000
14.940, 0.000
14.950, 0.000
14.960, 0.000
14.970, 0.000
14.980, 0.000
14.990, 0.000
15.000, 0.000
15.010, 0.000
15.020, 0.000
15.030, 0.000
15.040, 0.000
15.050, 0.000
15.060, 0.000
15.070, 0.000
15.080, 0.000
15.090, 0.000
15.100, 0.000
15.110, 0.000
15.120, 0.000
15.130, 0.000
15.140, 0.000
15.150, 0.000
15.160, 0.000
15.170, 0.000
15.180, 0.000
15.190, 0.000
15.200, 0.000
15.210, 0.000
15.220, 0.000
15.230, 0.000
15.240, 0.000
15.250, 0.000
15.260, 0.000
15.270, 0.000
15.280, 0.000
15.290, 0.000
15.300, 0.000
15.310, 0.000
15.320, 0.000
15.330, 0.000
15.340, 0.000
15.350, 0.000
15.360, 0.000
15.370, 0.000
15.380, 0.000
15.390, 0.000
15.400, 0.000
15.410, 0.000
15.420, 0.000
15.430, 0.000
15.440, 0.000
15.450, 0.000
15.460, 0.000
15.470, 0.000
15.480, 0.000
15.490, 0.000
15.500, 0.000
15.510, 0.000
15.520, 0.000
15.530, 0.000
15.540, 0.000
15.550, 0.000
15.560, 0.000
15.570, 0.000
15.580, 0.000
15.590, 0.000
15.600, 0.000
15.610, 0.000
15.620, 0.000
15.630, 0.000
15.640, 0.000
15.650, 0.000
15.660, 0.000
15.670, 0.000
15.680, 0.000
15.690, 0.000
15.700, 0.000
15.710, 0.000
15.720, 0.000
15.730, 0.000
15.740, 0.000
15.750, 0.000
15.760, 0.000
15.770, 0.000
15.780, 0.000
15.790, 0.000
15.800, 0.000
15.810, 0.000
15.820, 0.000
15.830, 0.000
15.840, 0.000
15.850, 0.000
15.860, 0.000
15.870, 0.000
15.880, 0.000
15.890, 0.000
15.900, 0.000
15.910, 0.000
15.920, 0.000
15.930, 0.000
15.940, 0.000
15.950, 0.000
15.960, 0.000
15.970, 0.000
15.980, 0.000
15.990, 0.000
16.000, 0.000
16.010, 0.000
16.020, 0.000
16.030, 0.000
16.040, 0.000
16.050, 0.000
16.060, 0.000
16.070, 0.000
16.080, 0.000
16.090, 0.000
16.100, 0.000
16.110, 0.000
16.120, 0.000
16.130, 0.000
16.140, 0.000
16.150, 0.000
16.160, 0.000
16.170, 0.000
16.180, 0.000
16.190, 0.000
16.200, 0.000
16.210, 0.000
16.220, 0.000
16.230, 0.000
16.240, 0.002
16.250, 0.010
16.260, 0.041
16.270, 0.147
16.280, 0.464
16.290, 1.293
16.300, 3.184
16.310, 6.936
16.320, 13.390
16.330, 22.960
16.340, 35.069
16.350, 47.915
16.360, 58.916
16.370, 65.725
16.380, 67.207
16.390, 63.703
16.400, 56.524
16.410, 47.200
16.420, 37.044
16.430, 27.128
16.440, 18.340
16.450, 11.322
16.460, 6.323
16.470, 3.172
16.480, 1.421
16.490, 0.567
16.500, 0.201
16.510, 0.063
16.520, 0.018
16.530, 0.004
16.540, 0.001
16.550, 0.000
16.560, 0.000
16.570, 0.000
16.580, 0.000
16.590, 0.000
16.600, 0.000
16.610, 0.000
16.620, 0.000
16.630, 0.000
16.640, 0.000
16.650, 0.000
16.660, 0.000
16.670, 0.000
16.680, 0.000
16.690, 0.000
16.700, 0.000
16.710, 0.000
16.720, 0.000
16.730, 0.000
16.740, 0.000
16.750, 0.000
16.760, 0.000
16.770, 0.000
16.780, 0.000
16.790, 0.000
16.800, 0.000
16.810, 0.000
16.820, 0.000
16.830, 0.000
16.840, 0.000
16.850, 0.000
16.860, 0.000
16.870, 0.000
16.880, 0.000
16.890, 0.000
16.900, 0.000
16.910, 0.000
16.920, 0.000
16.930, 0.000
16.940, 0.000
16.950, 0.000
16.960, 0.000
16.970, 0.000
16.980, 0.000
16.990, 0.000
17.000, 0.000
17.010, 0.000
17.020, 0.000
17.030, 0.000
17.040, 0.000
17.050, 0.000
17.060, 0.000
17.070, 0.000
17.080, 0.000
17.090, 0.000
17.100, 0.000
17.110, 0.000
17.120, 0.000
17.130, 0.000
17.140, 0.000
17.150, 0.000
17.160, 0.000
17.170, 0.000
17.180, 0.000
17.190, 0.000
17.200, 0.000
17.210, 0.000
17.220, 0.000
17.230, 0.000
17.240, 0.000
17.250, 0.000
17.260, 0.000
17.270, 0.000
17.280, 0.000
17.290, 0.000
17.300, 0.000
17.310, 0.000
17.320, 0.000
17.330, 0.000
17.340, 0.000
17.350, 0.000
17.360, 0.000
17.370, 0.000
17.380, 0.000
17.390, 0.000
17.400, 0.000
17.410, 0.000
17.420, 0.000
17.430, 0.000
17.440, 0.000
17.450, 0.000
17.460, 0.000
17.470, 0.000
17.480, 0.000
17.490, 0.000
17.500, 0.000
17.510, 0.000
17.520, 0.000
17.530, 0.000
17.540, 0.000
17.550, 0.000
17.560, 0.000
17.570, 0.000
17.580, 0.000
17.590, 0.000
17.600, 0.000
17.610, 0.000
17.620, 0.000
17.630, 0.000
17.640, 0.000
17.650, 0.000
17.660, 0.000
17.670, 0.000
17.680, 0.000
17.690, 0.000
17.700, 0.000
17.710, 0.000
17.720, 0.001
17.730, 0.006
17.740, 0.023
17.750, 0.081
17.760, 0.256
17.770, 0.714
17.780, 1.756
17.790, 3.815
17.800, 7.333
17.810, 12.504
17.820, 18.988
17.830, 25.840
17.840, 31.815
17.850, 35.912
17.860, 37.751
17.870, 37.515
17.880, 35.584
17.890, 32.256
17.900, 27.812
17.910, 22.686
17.920, 17.481
17.930, 12.765
17.940, 8.875
17.950, 5.877
17.960, 3.682
17.970, 2.154
17.980, 1.159
17.990, 0.567
18.000, 0.249
18.010, 0.097
18.020, 0.034
18.030, 0.010
18.040, 0.003
18.050, 0.001
18.060, 0.000
18.070, 0.000
18.080, 0.000
18.090, 0.000
18.100, 0.000
18.110, 0.000
18.120, 0.000
18.130, 0.000
18.140, 0.000
18.150, 0.000
18.160, 0.000
18.170, 0.000
18.180, 0.000
18.190, 0.000
18.200, 0.000
18.210, 0.000
18.220, 0.000
18.230, 0.000
18.240, 0.000
18.250, 0.000
18.260, 0.000
18.270, 0.000
18.280, 0.000
18.290, 0.000
18.300, 0.000
18.310, 0.000
18.320, 0.000
18.330, 0.000
18.340, 0.000
18.350, 0.000
18.360, 0.000
18.370, 0.000
18.380, 0.000
18.390, 0.000
18.400, 0.000
18.410, 0.000
18.420, 0.000
18.430, 0.000
18.440, 0.000
18.450, 0.000
18.460, 0.000
18.470, 0.000
18.480, 0.001
18.490, 0.002
18.500, 0.009
18.510, 0.028
18.520, 0.081
18.530, 0.207
18.540, 0.469
18.550, 0.950
18.560, 1.738
18.570, 2.898
18.580, 4.458
18.590, 6.398
18.600, 8.634
18.610, 10.978
18.620, 13.108
18.630, 14.616
18.640, 15.171
18.650, 14.691
18.660, 13.380
18.670, 11.593
18.680, 9.635
18.690, 7.674
18.700, 5.793
18.710, 4.076
18.720, 2.628
18.730, 1.532
18.740, 0.800
18.750, 0.372
18.760, 0.154
18.770, 0.056
18.780, 0.018
18.790, 0.005
18.800, 0.001
18.810, 0.000
18.820, 0.000
18.830, 0.000
18.840, 0.000
18.850, 0.000
18.860, 0.000
18.870, 0.000
18.880, 0.000
18.890, 0.000
18.900, 0.000
18.910, 0.000
18.920, 0.000
18.930, 0.000
18.940, 0.000
18.950, 0.000
18.960, 0.000
18.970, 0.000
18.980, 0.000
18.990, 0.000
19.000, 0.000
19.010, 0.000
19.020, 0.000
19.030, 0.000
19.040, 0.000
19.050, 0.000
19.060, 0.000
19.070, 0.000
19.080, 0.000
19.090, 0.000
19.100, 0.000
19.110, 0.000
19.120, 0.000
19.130, 0.000
19.140, 0.000
19.150, 0.000
19.160, 0.000
19.170, 0.000
19.180, 0.000
19.190, 0.000
19.200, 0.000
19.210, 0.000
19.220, 0.000
19.230, 0.000
19.240, 0.000
19.250, 0.000
19.260, 0.000
19.270, 0.000
19.280, 0.000
19.290, 0.000
19.300, 0.000
19.310, 0.000
19.320, 0.000
19.330, 0.000
19.340, 0.000
19.350, 0.000
19.360, 0.000
19.370, 0.000
19.380, 0.000
19.390, 0.000
19.400, 0.000
19.410, 0.000
19.420, 0.000
19.430, 0.000
19.440, 0.000
19.450, 0.000
19.460, 0.000
19.470, 0.000
19.480, 0.000
19.490, 0.000
19.500, 0.000
19.510, 0.000
19.520, 0.000
19.530, 0.000
19.540, 0.000
19.550, 0.000
19.560, 0.000
19.570, 0.000
19.580, 0.000
19.590, 0.000
19.600, 0.000
19.610, 0.000
19.620, 0.000
19.630, 0.000
19.640, 0.000
19.650, 0.000
19.660, 0.000
19.670, 0.000
19.680, 0.000
19.690, 0.000
19.700, 0.000
19.710, 0.000
19.720, 0.000
19.730, 0.000
19.740, 0.000
19.750, 0.000
19.760, 0.000
19.770, 0.000
19.780, 0.000
19.790, 0.000
19.800, 0.000
19.810, 0.000
19.820, 0.000
19.830, 0.000
19.840, 0.000
19.850, 0.000
19.860, 0.000
19.870, 0.000
19.880, 0.000
19.890, 0.000
19.900, 0.000
19.910, 0.000
19.920, 0.000
19.930, 0.000
19.940, 0.000
19.950, 0.000
19.960, 0.000
19.970, 0.000
19.980, 0.000
19.990, 0.000
20.000, 0.000
20.010, 0.001
20.020, 0.002
20.030, 0.007
20.040, 0.019
20.050, 0.049
20.060, 0.114
20.070, 0.233
20.080, 0.425
20.090, 0.689
20.100, 0.996
20.110, 1.291
20.120, 1.509
20.130, 1.608
20.140, 1.584
20.150, 1.472
20.160, 1.313
20.170, 1.136
20.180, 0.949
20.190, 0.753
20.200, 0.558
20.210, 0.379
20.220, 0.234
20.230, 0.129
20.240, 0.064
20.250, 0.028
20.260, 0.011
20.270, 0.004
20.280, 0.001
20.290, 0.000
20.300, 0.000
20.310, 0.000
20.320, 0.000
20.330, 0.000
20.340, 0.000
20.350, 0.000
20.360, 0.000
20.370, 0.000
20.380, 0.000
20.390, 0.000
20.400, 0.000
20.410, 0.000
20.420, 0.000
20.430, 0.000
20.440, 0.000
20.450, 0.000
20.460, 0.000
20.470, 0.000
20.480, 0.000
20.490, 0.000
20.500, 0.000
20.510, 0.000
20.520, 0.000
20.530, 0.000
20.540, 0.000
20.550, 0.000
20.560, 0.000
20.570, 0.001
20.580, 0.004
20.590, 0.017
20.600, 0.060
20.610, 0.186
20.620, 0.514
20.630, 1.260
20.640, 2.758
20.650, 5.410
20.660, 9.560
20.670, 15.325
20.680, 22.481
20.690, 30.463
20.700, 38.452
20.710, 45.486
20.720, 50.562
20.730, 52.847
20.740, 51.999
20.750, 48.383
20.760, 42.940
20.770, 36.717
20.780, 30.431
20.790, 24.384
20.800, 18.736
20.810, 13.798
20.820, 10.093
20.830, 8.154
20.840, 8.255
20.850, 10.209
20.860, 13.321
20.870, 16.553
20.880, 18.884
20.890, 19.718
20.900, 19.092
20.910, 17.513
20.920, 15.552
20.930, 13.512
20.940, 11.404
20.950, 9.159
20.960, 6.838
20.970, 4.658
20.980, 2.859
20.990, 1.569
21.000, 0.767
21.010, 0.333
21.020, 0.128
21.030, 0.044
21.040, 0.013
21.050, 0.004
21.060, 0.001
21.070, 0.000
21.080, 0.000
21.090, 0.000
21.100, 0.000
21.110, 0.000
21.120, 0.000
21.130, 0.000
21.140, 0.000
21.150, 0.000
21.160, 0.000
21.170, 0.000
21.180, 0.000
21.190, 0.000
21.200, 0.000
21.210, 0.000
21.220, 0.000
21.230, 0.000
21.240, 0.000
21.250, 0.000
21.260, 0.000
21.270, 0.000
21.280, 0.000
21.290, 0.000
21.300, 0.000
21.310, 0.000
21.320, 0.000
21.330, 0.000
21.340, 0.000
21.350, 0.000
21.360, 0.000
21.370, 0.000
21.380, 0.000
21.390, 0.000
21.400, 0.000
21.410, 0.000
21.420, 0.000
21.430, 0.000
21.440, 0.000
21.450, 0.000
21.460, 0.000
21.470, 0.000
21.480, 0.000
21.490, 0.000
21.500, 0.000
21.510, 0.000
21.520, 0.000
21.530, 0.000
21.540, 0.000
21.550, 0.000
21.560, 0.000
21.570, 0.000
21.580, 0.000
21.590, 0.000
21.600, 0.000
21.610, 0.000
21.620, 0.000
21.630, 0.000
21.640, 0.000
21.650, 0.000
21.660, 0.000
21.670, 0.000
21.680, 0.000
21.690, 0.000
21.700, 0.000
21.710, 0.000
21.720, 0.000
21.730, 0.000
21.740, 0.000
21.750, 0.000
21.760, 0.000
21.770, 0.000
21.780, 0.000
21.790, 0.000
21.800, 0.000
21.810, 0.000
21.820, 0.000
21.830, 0.000
21.840, 0.000
21.850, 0.000
21.860, 0.000
21.870, 0.000
21.880, 0.000
21.890, 0.000
21.900, 0.000
21.910, 0.000
21.920, 0.000
21.930, 0.000
21.940, 0.000
21.950, 0.000
21.960, 0.000
21.970, 0.000
21.980, 0.000
21.990, 0.000
22.000, 0.000
22.010, 0.000
22.020, 0.000
22.030, 0.000
22.040, 0.000
22.050, 0.000
22.060, 0.000
22.070, 0.000
22.080, 0.000
22.090, 0.000
22.100, 0.000
22.110, 0.000
22.120, 0.000
22.130, 0.000
22.140, 0.000
22.150, 0.000
22.160, 0.000
22.170, 0.000
22.180, 0.000
22.190, 0.000
22.200, 0.000
22.210, 0.000
22.220, 0.000
22.230, 0.000
22.240, 0.000
22.250, 0.000
22.260, 0.000
22.270, 0.000
22.280, 0.000
22.290, 0.000
22.300, 0.000
22.310, 0.000
22.320, 0.000
22.330, 0.000
22.340, 0.000
22.350, 0.000
22.360, 0.000
22.370, 0.000
22.380, 0.000
22.390, 0.000
22.400, 0.000
22.410, 0.000
22.420, 0.000
22.430, 0.000
22.440, 0.000
22.450, 0.000
22.460, 0.000
22.470, 0.000
22.480, 0.000
22.490, 0.000
22.500, 0.000
22.510, 0.000
22.520, 0.000
22.530, 0.000
22.540, 0.000
22.550, 0.000
22.560, 0.000
22.570, 0.000
22.580, 0.000
22.590, 0.000
22.600, 0.000
22.610, 0.000
22.620, 0.000
22.630, 0.000
22.640, 0.000
22.650, 0.000
22.660, 0.000
22.670, 0.000
22.680, 0.000
22.690, 0.000
22.700, 0.000
22.710, 0.000
22.720, 0.000
22.730, 0.000
22.740, 0.000
22.750, 0.000
22.760, 0.000
22.770, 0.000
22.780, 0.000
22.790, 0.000
22.800, 0.000
22.810, 0.000
22.820, 0.000
22.830, 0.000
22.840, 0.000
22.850, 0.000
22.860, 0.000
22.870, 0.000
22.880, 0.000
22.890, 0.000
22.900, 0.000
22.910, 0.000
22.920, 0.000
22.930, 0.000
22.940, 0.000
22.950, 0.000
22.960, 0.000
22.970, 0.000
22.980, 0.000
22.990, 0.000
23.000, 0.000
23.010, 0.000
23.020, 0.000
23.030, 0.000
23.040, 0.000
23.050, 0.000
23.060, 0.000
23.070, 0.000
23.080, 0.000
23.090, 0.000
23.100, 0.000
23.110, 0.000
23.120, 0.000
23.130, 0.000
23.140, 0.000
23.150, 0.000
23.160, 0.000
23.170, 0.000
23.180, 0.000
23.190, 0.000
23.200, 0.000
23.210, 0.000
23.220, 0.000
23.230, 0.000
23.240, 0.000
23.250, 0.000
23.260, 0.000
23.270, 0.000
23.280, 0.000
23.290, 0.000
23.300, 0.000
23.310, 0.000
23.320, 0.000
23.330, 0.000
23.340, 0.000
23.350, 0.000
23.360, 0.000
23.370, 0.000
23.380, 0.000
23.390, 0.000
23.400, 0.000
23.410, 0.000
23.420, 0.000
23.430, 0.000
23.440, 0.000
23.450, 0.000
23.460, 0.000
23.470, 0.000
23.480, 0.000
23.490, 0.000
23.500, 0.000
23.510, 0.000
23.520, 0.000
23.530, 0.000
23.540, 0.000
23.550, 0.000
23.560, 0.000
23.570, 0.000
23.580, 0.000
23.590, 0.000
23.600, 0.000
23.610, 0.000
23.620, 0.000
23.630, 0.000
23.640, 0.000
23.650, 0.000
23.660, 0.000
23.670, 0.000
23.680, 0.000
23.690, 0.001
23.700, 0.003
23.710, 0.010
23.720, 0.029
23.730, 0.074
23.740, 0.170
23.750, 0.351
23.760, 0.649
23.770, 1.086
23.780, 1.649
23.790, 2.287
23.800, 2.916
23.810, 3.443
23.820, 3.791
23.830, 3.921
23.840, 3.840
23.850, 3.594
23.860, 3.250
23.870, 2.869
23.880, 2.484
23.890, 2.101
23.900, 1.714
23.910, 1.325
23.920, 0.955
23.930, 0.633
23.940, 0.381
23.950, 0.207
23.960, 0.101
23.970, 0.044
23.980, 0.017
23.990, 0.006
24.000, 0.002
24.010, 0.001
24.020, 0.000
24.030, 0.000
24.040, 0.000
24.050, 0.000
24.060, 0.000
24.070, 0.000
24.080, 0.000
24.090, 0.000
24.100, 0.000
24.110, 0.000
24.120, 0.000
24.130, 0.000
24.140, 0.000
24.150, 0.000
24.160, 0.000
24.170, 0.000
24.180, 0.000
24.190, 0.000
24.200, 0.000
24.210, 0.000
24.220, 0.000
24.230, 0.000
24.240, 0.000
24.250, 0.000
24.260, 0.000
24.270, 0.000
24.280, 0.000
24.290, 0.000
24.300, 0.000
24.310, 0.000
24.320, 0.000
24.330, 0.001
24.340, 0.006
24.350, 0.024
24.360, 0.086
24.370, 0.280
24.380, 0.811
24.390, 2.101
24.400, 4.861
24.410, 10.047
24.420, 18.556
24.430, 30.643
24.440, 45.284
24.450, 60.002
24.460, 71.543
24.470, 77.296
24.480, 76.638
24.490, 71.211
24.500, 63.847
24.510, 56.870
24.520, 50.981
24.530, 45.422
24.540, 39.070
24.550, 31.505
24.560, 23.314
24.570, 15.630
24.580, 9.425
24.590, 5.093
24.600, 2.461
24.610, 1.062
24.620, 0.409
24.630, 0.141
24.640, 0.043
24.650, 0.012
24.660, 0.003
24.670, 0.001
24.680, 0.000
24.690, 0.000
24.700, 0.000
24.710, 0.000
24.720, 0.000
24.730, 0.000
24.740, 0.000
24.750, 0.000
24.760, 0.000
24.770, 0.000
24.780, 0.000
24.790, 0.000
24.800, 0.000
24.810, 0.000
24.820, 0.000
24.830, 0.000
24.840, 0.000
24.850, 0.000
24.860, 0.000
24.870, 0.000
24.880, 0.000
24.890, 0.000
24.900, 0.000
24.910, 0.000
24.920, 0.000
24.930, 0.000
24.940, 0.000
24.950, 0.000
24.960, 0.000
24.970, 0.000
24.980, 0.000
24.990, 0.000
25.000, 0.000
25.010, 0.000
25.020, 0.000
25.030, 0.000
25.040, 0.000
25.050, 0.000
25.060, 0.000
25.070, 0.000
25.080, 0.000
25.090, 0.000
25.100, 0.000
25.110, 0.000
25.120, 0.000
25.130, 0.000
25.140, 0.000
25.150, 0.000
25.160, 0.000
25.170, 0.000
25.180, 0.000
25.190, 0.000
25.200, 0.000
25.210, 0.000
25.220, 0.000
25.230, 0.002
25.240, 0.008
25.250, 0.029
25.260, 0.090
25.270, 0.251
25.280, 0.625
25.290, 1.392
25.300, 2.791
25.310, 5.051
25.320, 8.296
25.330, 12.448
25.340, 17.208
25.350, 22.101
25.360, 26.581
25.370, 30.105
25.380, 32.208
25.390, 32.616
25.400, 31.368
25.410, 28.872
25.420, 25.755
25.430, 22.590
25.440, 19.647
25.450, 16.865
25.460, 14.048
25.470, 11.103
25.480, 8.161
25.490, 5.494
25.500, 3.354
25.510, 1.844
25.520, 0.910
25.530, 0.402
25.540, 0.159
25.550, 0.056
25.560, 0.018
25.570, 0.005
25.580, 0.001
25.590, 0.000
25.600, 0.000
25.610, 0.000
25.620, 0.000
25.630, 0.000
25.640, 0.000
25.650, 0.000
25.660, 0.000
25.670, 0.000
25.680, 0.000
25.690, 0.000
25.700, 0.000
25.710, 0.000
25.720, 0.000
25.730, 0.000
25.740, 0.000
25.750, 0.000
25.760, 0.000
25.770, 0.001
25.780, 0.006
25.790, 0.021
25.800, 0.067
25.810, 0.193
25.820, 0.495
25.830, 1.137
25.840, 2.338
25.850, 4.312
25.860, 7.151
25.870, 10.704
25.880, 14.538
25.890, 18.055
25.900, 20.710
25.910, 22.218
25.920, 22.601
25.930, 22.086
25.940, 20.941
25.950, 19.375
25.960, 17.526
25.970, 15.496
25.980, 13.368
25.990, 11.206
26.000, 9.061
26.010, 6.991
26.020, 5.081
26.030, 3.434
26.040, 2.135
26.050, 1.209
26.060, 0.620
26.070, 0.287
26.080, 0.119
26.090, 0.044
26.100, 0.015
26.110, 0.004
26.120, 0.001
26.130, 0.000
26.140, 0.000
26.150, 0.000
26.160, 0.000
26.170, 0.000
26.180, 0.000
26.190, 0.000
26.200, 0.000
26.210, 0.000
26.220, 0.000
26.230, 0.000
26.240, 0.000
26.250, 0.000
26.260, 0.000
26.270, 0.000
26.280, 0.000
26.290, 0.000
26.300, 0.000
26.310, 0.000
26.320, 0.000
26.330, 0.000
26.340, 0.000
26.350, 0.000
26.360, 0.000
26.370, 0.000
26.380, 0.000
26.390, 0.000
26.400, 0.000
26.410, 0.000
26.420, 0.000
26.430, 0.000
26.440, 0.000
26.450, 0.000
26.460, 0.000
26.470, 0.000
26.480, 0.000
26.490, 0.000
26.500, 0.000
26.510, 0.000
26.520, 0.000
26.530, 0.000
26.540, 0.000
26.550, 0.000
26.560, 0.000
26.570, 0.000
26.580, 0.000
26.590, 0.000
26.600, 0.000
26.610, 0.000
26.620, 0.000
26.630, 0.000
26.640, 0.000
26.650, 0.000
26.660, 0.000
26.670, 0.000
26.680, 0.000
26.690, 0.000
26.700, 0.000
26.710, 0.000
26.720, 0.000
26.730, 0.000
26.740, 0.000
26.750, 0.000
26.760, 0.000
26.770, 0.000
26.780, 0.000
26.790, 0.000
26.800, 0.000
26.810, 0.000
26.820, 0.000
26.830, 0.000
26.840, 0.000
26.850, 0.000
26.860, 0.000
26.870, 0.000
26.880, 0.000
26.890, 0.000
26.900, 0.000
26.910, 0.000
26.920, 0.000
26.930, 0.000
26.940, 0.000
26.950, 0.000
26.960, 0.000
26.970, 0.000
26.980, 0.000
26.990, 0.000
27.000, 0.000
27.010, 0.000
27.020, 0.000
27.030, 0.000
27.040, 0.000
27.050, 0.000
27.060, 0.000
27.070, 0.000
27.080, 0.000
27.090, 0.000
27.100, 0.000
27.110, 0.000
27.120, 0.000
27.130, 0.000
27.140, 0.000
27.150, 0.000
27.160, 0.000
27.170, 0.000
27.180, 0.000
27.190, 0.000
27.200, 0.000
27.210, 0.000
27.220, 0.000
27.230, 0.000
27.240, 0.000
27.250, 0.000
27.260, 0.000
27.270, 0.000
27.280, 0.000
27.290, 0.000
27.300, 0.000
27.310, 0.000
27.320, 0.000
27.330, 0.001
27.340, 0.003
27.350, 0.011
27.360, 0.040
27.370, 0.129
27.380, 0.372
27.390, 0.958
27.400, 2.212
27.410, 4.587
27.420, 8.555
27.430, 14.384
27.440, 21.881
27.450, 30.257
27.460, 38.275
27.470, 44.652
27.480, 48.520
27.490, 49.679
27.500, 48.535
27.510, 45.821
27.520, 42.286
27.530, 38.476
27.540, 34.667
27.550, 30.893
27.560, 27.053
27.570, 23.045
27.580, 18.879
27.590, 14.719
27.600, 10.846
27.610, 7.544
27.620, 4.990
27.630, 3.202
27.640, 2.068
27.650, 1.412
27.660, 1.058
27.670, 0.869
27.680, 0.750
27.690, 0.648
27.700, 0.539
27.710, 0.422
27.720, 0.307
27.730, 0.206
27.740, 0.126
27.750, 0.071
27.760, 0.036
27.770, 0.017
27.780, 0.007
27.790, 0.003
27.800, 0.001
27.810, 0.000
27.820, 0.000
27.830, 0.000
27.840, 0.000
27.850, 0.000
27.860, 0.000
27.870, 0.000
27.880, 0.000
27.890, 0.000
27.900, 0.000
27.910, 0.000
27.920, 0.000
27.930, 0.000
27.940, 0.000
27.950, 0.000
27.960, 0.000
27.970, 0.000
27.980, 0.000
27.990, 0.000
28.000, 0.000
28.010, 0.000
28.020, 0.000
28.030, 0.000
28.040, 0.000
28.050, 0.000
28.060, 0.000
28.070, 0.000
28.080, 0.000
28.090, 0.000
28.100, 0.000
28.110, 0.000
28.120, 0.000
28.130, 0.000
28.140, 0.000
28.150, 0.000
28.160, 0.000
28.170, 0.000
28.180, 0.000
28.190, 0.000
28.200, 0.000
28.210, 0.000
28.220, 0.000
28.230, 0.000
28.240, 0.000
28.250, 0.000
28.260, 0.000
28.270, 0.000
28.280, 0.001
28.290, 0.004
28.300, 0.010
28.310, 0.025
28.320, 0.057
28.330, 0.115
28.340, 0.207
28.350, 0.338
28.360, 0.497
28.370, 0.662
28.380, 0.802
28.390, 0.897
28.400, 0.941
28.410, 0.956
28.420, 0.974
28.430, 1.019
28.440, 1.094
28.450, 1.170
28.460, 1.205
28.470, 1.168
28.480, 1.058
28.490, 0.902
28.500, 0.741
28.510, 0.610
28.520, 0.518
28.530, 0.454
28.540, 0.399
28.550, 0.336
28.560, 0.265
28.570, 0.190
28.580, 0.124
28.590, 0.072
28.600, 0.038
28.610, 0.018
28.620, 0.008
28.630, 0.003
28.640, 0.001
28.650, 0.000
28.660, 0.000
28.670, 0.000
28.680, 0.000
28.690, 0.000
28.700, 0.000
28.710, 0.000
28.720, 0.000
28.730, 0.000
28.740, 0.000
28.750, 0.000
28.760, 0.000
28.770, 0.000
28.780, 0.001
28.790, 0.003
28.800, 0.008
28.810, 0.019
28.820, 0.039
28.830, 0.075
28.840, 0.129
28.850, 0.203
28.860, 0.296
28.870, 0.404
28.880, 0.525
28.890, 0.665
28.900, 0.838
28.910, 1.060
28.920, 1.330
28.930, 1.618
28.940, 1.866
28.950, 2.008
28.960, 2.002
28.970, 1.858
28.980, 1.634
28.990, 1.406
29.000, 1.228
29.010, 1.113
29.020, 1.032
29.030, 0.943
29.040, 0.819
29.050, 0.663
29.060, 0.505
29.070, 0.395
29.080, 0.392
29.090, 0.570
29.100, 1.016
29.110, 1.809
29.120, 2.973
29.130, 4.418
29.140, 5.911
29.150, 7.123
29.160, 7.758
29.170, 7.696
29.180, 7.064
29.190, 6.174
29.200, 5.362
29.210, 4.824
29.220, 4.544
29.230, 4.351
29.240, 4.047
29.250, 3.527
29.260, 2.819
29.270, 2.043
29.280, 1.335
29.290, 0.785
29.300, 0.415
29.310, 0.197
29.320, 0.084
29.330, 0.032
29.340, 0.011
29.350, 0.003
29.360, 0.001
29.370, 0.000
29.380, 0.000
29.390, 0.000
29.400, 0.000
29.410, 0.000
29.420, 0.000
29.430, 0.000
29.440, 0.000
29.450, 0.000
29.460, 0.000
29.470, 0.000
29.480, 0.000
29.490, 0.000
29.500, 0.000
29.510, 0.000
29.520, 0.000
29.530, 0.000
29.540, 0.000
29.550, 0.000
29.560, 0.000
29.570, 0.000
29.580, 0.000
29.590, 0.000
29.600, 0.000
29.610, 0.000
29.620, 0.000
29.630, 0.000
29.640, 0.000
29.650, 0.000
29.660, 0.000
29.670, 0.000
29.680, 0.000
29.690, 0.000
29.700, 0.000
29.710, 0.000
29.720, 0.000
29.730, 0.000
29.740, 0.000
29.750, 0.000
29.760, 0.000
29.770, 0.000
29.780, 0.000
29.790, 0.000
29.800, 0.001
29.810, 0.004
29.820, 0.014
29.830, 0.040
29.840, 0.101
29.850, 0.232
29.860, 0.485
29.870, 0.919
29.880, 1.590
29.890, 2.520
29.900, 3.674
29.910, 4.945
29.920, 6.163
29.930, 7.129
29.940, 7.674
29.950, 7.718
29.960, 7.312
29.970, 6.626
29.980, 5.878
29.990, 5.243
30.000, 4.780
30.010, 4.435
30.020, 4.087
30.030, 3.632
30.040, 3.036
30.050, 2.346
30.060, 1.659
30.070, 1.066
30.080, 0.620
30.090, 0.325
30.100, 0.154
30.110, 0.065
30.120, 0.025
30.130, 0.009
30.140, 0.003
30.150, 0.001
30.160, 0.000
30.170, 0.001
30.180, 0.002
30.190, 0.008
30.200, 0.028
30.210, 0.085
30.220, 0.231
30.230, 0.567
30.240, 1.250
30.250, 2.477
30.260, 4.420
30.270, 7.112
30.280, 10.341
30.290, 13.634
30.300, 16.405
30.310, 18.214
30.320, 19.009
30.330, 19.173
30.340, 19.304
30.350, 19.843
30.360, 20.784
30.370, 21.653
30.380, 21.790
30.390, 20.753
30.400, 18.582
30.410, 15.771
30.420, 12.980
30.430, 10.699
30.440, 9.060
30.450, 7.876
30.460, 6.838
30.470, 5.722
30.480, 4.481
30.490, 3.226
30.500, 2.112
30.510, 1.250
30.520, 0.667
30.530, 0.320
30.540, 0.138
30.550, 0.054
30.560, 0.019
30.570, 0.006
30.580, 0.002
30.590, 0.000
30.600, 0.000
30.610, 0.000
30.620, 0.000
30.630, 0.000
30.640, 0.000
30.650, 0.000
30.660, 0.000
30.670, 0.000
30.680, 0.000
30.690, 0.000
30.700, 0.000
30.710, 0.000
30.720, 0.000
30.730, 0.000
30.740, 0.000
30.750, 0.000
30.760, 0.000
30.770, 0.000
30.780, 0.000
30.790, 0.000
30.800, 0.000
30.810, 0.000
30.820, 0.000
30.830, 0.000
30.840, 0.000
30.850, 0.000
30.860, 0.000
30.870, 0.000
30.880, 0.000
30.890, 0.000
30.900, 0.000
30.910, 0.000
30.920, 0.000
30.930, 0.000
30.940, 0.000
30.950, 0.000
30.960, 0.000
30.970, 0.000
30.980, 0.000
30.990, 0.000
31.000, 0.000
31.010, 0.000
31.020, 0.000
31.030, 0.000
31.040, 0.000
31.050, 0.000
31.060, 0.000
31.070, 0.000
31.080, 0.000
31.090, 0.000
31.100, 0.000
31.110, 0.000
31.120, 0.000
31.130, 0.000
31.140, 0.000
31.150, 0.000
31.160, 0.000
31.170, 0.000
31.180, 0.000
31.190, 0.000
31.200, 0.000
31.210, 0.000
31.220, 0.000
31.230, 0.000
31.240, 0.000
31.250, 0.000
31.260, 0.000
31.270, 0.000
31.280, 0.000
31.290, 0.000
31.300, 0.000
31.310, 0.000
31.320, 0.000
31.330, 0.000
31.340, 0.000
31.350, 0.000
31.360, 0.000
31.370, 0.000
31.380, 0.000
31.390, 0.000
31.400, 0.000
31.410, 0.000
31.420, 0.000
31.430, 0.000
31.440, 0.001
31.450, 0.002
31.460, 0.005
31.470, 0.013
31.480, 0.028
31.490, 0.056
31.500, 0.100
31.510, 0.162
31.520, 0.235
31.530, 0.306
31.540, 0.360
31.550, 0.382
31.560, 0.369
31.570, 0.330
31.580, 0.280
31.590, 0.238
31.600, 0.214
31.610, 0.206
31.620, 0.205
31.630, 0.200
31.640, 0.184
31.650, 0.154
31.660, 0.118
31.670, 0.081
31.680, 0.050
31.690, 0.028
31.700, 0.014
31.710, 0.006
31.720, 0.003
31.730, 0.001
31.740, 0.000
31.750, 0.001
31.760, 0.002
31.770, 0.006
31.780, 0.017
31.790, 0.043
31.800, 0.097
31.810, 0.198
31.820, 0.365
31.830, 0.606
31.840, 0.909
31.850, 1.232
31.860, 1.511
31.870, 1.685
31.880, 1.716
31.890, 1.614
31.900, 1.431
31.910, 1.237
31.920, 1.087
31.930, 1.004
31.940, 0.972
31.950, 0.949
31.960, 0.899
31.970, 0.801
31.980, 0.660
31.990, 0.500
32.000, 0.347
32.010, 0.220
32.020, 0.127
32.030, 0.068
32.040, 0.033
32.050, 0.014
32.060, 0.006
32.070, 0.002
32.080, 0.001
32.090, 0.000
32.100, 0.000
32.110, 0.000
32.120, 0.000
32.130, 0.000
32.140, 0.000
32.150, 0.000
32.160, 0.000
32.170, 0.000
32.180, 0.000
32.190, 0.000
32.200, 0.000
32.210, 0.000
32.220, 0.000
32.230, 0.000
32.240, 0.000
32.250, 0.000
32.260, 0.000
32.270, 0.000
32.280, 0.000
32.290, 0.000
32.300, 0.000
32.310, 0.000
32.320, 0.000
32.330, 0.000
32.340, 0.000
32.350, 0.000
32.360, 0.000
32.370, 0.000
32.380, 0.000
32.390, 0.000
32.400, 0.000
32.410, 0.000
32.420, 0.000
32.430, 0.000
32.440, 0.000
32.450, 0.002
32.460, 0.005
32.470, 0.014
32.480, 0.037
32.490, 0.088
32.500, 0.191
32.510, 0.380
32.520, 0.698
32.530, 1.191
32.540, 1.904
32.550, 2.874
32.560, 4.113
32.570, 5.592
32.580, 7.212
32.590, 8.788
32.600, 10.074
32.610, 10.834
32.620, 10.927
32.630, 10.388
32.640, 9.419
32.650, 8.317
32.660, 7.353
32.670, 6.668
32.680, 6.239
32.690, 5.916
32.700, 5.521
32.710, 4.933
32.720, 4.139
32.730, 3.222
32.740, 2.311
32.750, 1.521
32.760, 0.915
32.770, 0.503
32.780, 0.252
32.790, 0.114
32.800, 0.047
32.810, 0.018
32.820, 0.006
32.830, 0.002
32.840, 0.001
32.850, 0.000
32.860, 0.000
32.870, 0.000
32.880, 0.000
32.890, 0.000
32.900, 0.000
32.910, 0.000
32.920, 0.000
32.930, 0.000
32.940, 0.000
32.950, 0.000
32.960, 0.002
32.970, 0.005
32.980, 0.013
32.990, 0.035
33.000, 0.083
33.010, 0.179
33.020, 0.354
33.030, 0.646
33.040, 1.084
33.050, 1.676
33.060, 2.389
33.070, 3.135
33.080, 3.786
33.090, 4.206
33.100, 4.303
33.110, 4.078
33.120, 3.629
33.130, 3.114
33.140, 2.686
33.150, 2.425
33.160, 2.322
33.170, 2.295
33.180, 2.237
33.190, 2.071
33.200, 1.779
33.210, 1.401
33.220, 1.004
33.230, 0.652
33.240, 0.384
33.250, 0.204
33.260, 0.098
33.270, 0.042
33.280, 0.016
33.290, 0.006
33.300, 0.002
33.310, 0.001
33.320, 0.000
33.330, 0.000
33.340, 0.000
33.350, 0.000
33.360, 0.000
33.370, 0.000
33.380, 0.000
33.390, 0.000
33.400, 0.000
33.410, 0.000
33.420, 0.000
33.430, 0.000
33.440, 0.000
33.450, 0.000
33.460, 0.000
33.470, 0.000
33.480, 0.000
33.490, 0.000
33.500, 0.000
33.510, 0.000
33.520, 0.000
33.530, 0.000
33.540, 0.000
33.550, 0.000
33.560, 0.000
33.570, 0.000
33.580, 0.000
33.590, 0.000
33.600, 0.000
33.610, 0.000
33.620, 0.000
33.630, 0.000
33.640, 0.000
33.650, 0.000
33.660, 0.000
33.670, 0.000
33.680, 0.000
33.690, 0.000
33.700, 0.000
33.710, 0.000
33.720, 0.000
33.730, 0.000
33.740, 0.000
33.750, 0.000
33.760, 0.000
33.770, 0.000
33.780, 0.000
33.790, 0.000
33.800, 0.000
33.810, 0.000
33.820, 0.000
33.830, 0.000
33.840, 0.000
33.850, 0.000
33.860, 0.000
33.870, 0.000
33.880, 0.000
33.890, 0.000
33.900, 0.000
33.910, 0.000
33.920, 0.000
33.930, 0.000
33.940, 0.000
33.950, 0.000
33.960, 0.001
33.970, 0.004
33.980, 0.014
33.990, 0.044
34.000, 0.127
34.010, 0.329
34.020, 0.768
34.030, 1.621
34.040, 3.086
34.050, 5.304
34.060, 8.229
34.070, 11.528
34.080, 14.589
34.090, 16.696
34.100, 17.321
34.110, 16.387
34.120, 14.331
34.130, 11.926
34.140, 9.940
34.150, 8.826
34.160, 8.580
34.170, 8.819
34.180, 9.003
34.190, 8.701
34.200, 7.754
34.210, 6.295
34.220, 4.631
34.230, 3.081
34.240, 1.852
34.250, 1.005
34.260, 0.493
34.270, 0.218
34.280, 0.087
34.290, 0.031
34.300, 0.010
34.310, 0.003
34.320, 0.001
34.330, 0.000
34.340, 0.000
34.350, 0.000
34.360, 0.000
34.370, 0.000
34.380, 0.000
34.390, 0.000
34.400, 0.000
34.410, 0.000
34.420, 0.000
34.430, 0.000
34.440, 0.000
34.450, 0.000
34.460, 0.000
34.470, 0.000
34.480, 0.000
34.490, 0.000
34.500, 0.000
34.510, 0.000
34.520, 0.000
34.530, 0.000
34.540, 0.000
34.550, 0.000
34.560, 0.000
34.570, 0.000
34.580, 0.000
34.590, 0.000
34.600, 0.000
34.610, 0.000
34.620, 0.000
34.630, 0.000
34.640, 0.000
34.650, 0.000
34.660, 0.000
34.670, 0.000
34.680, 0.000
34.690, 0.000
34.700, 0.000
34.710, 0.000
34.720, 0.000
34.730, 0.000
34.740, 0.000
34.750, 0.000
34.760, 0.000
34.770, 0.000
34.780, 0.000
34.790, 0.000
34.800, 0.000
34.810, 0.000
34.820, 0.000
34.830, 0.000
34.840, 0.000
34.850, 0.000
34.860, 0.000
34.870, 0.000
34.880, 0.000
34.890, 0.000
34.900, 0.000
34.910, 0.000
34.920, 0.000
34.930, 0.000
34.940, 0.000
34.950, 0.000
34.960, 0.000
34.970, 0.000
34.980, 0.000
34.990, 0.000
35.000, 0.000
35.010, 0.000
35.020, 0.000
35.030, 0.000
35.040, 0.000
35.050, 0.000
35.060, 0.000
35.070, 0.000
35.080, 0.000
35.090, 0.000
35.100, 0.000
35.110, 0.000
35.120, 0.000
35.130, 0.000
35.140, 0.000
35.150, 0.000
35.160, 0.000
35.170, 0.000
35.180, 0.000
35.190, 0.000
35.200, 0.000
35.210, 0.000
35.220, 0.000
35.230, 0.000
35.240, 0.000
35.250, 0.000
35.260, 0.000
35.270, 0.000
35.280, 0.000
35.290, 0.000
35.300, 0.000
35.310, 0.000
35.320, 0.000
35.330, 0.000
35.340, 0.000
35.350, 0.000
35.360, 0.000
35.370, 0.000
35.380, 0.000
35.390, 0.002
35.400, 0.006
35.410, 0.017
35.420, 0.048
35.430, 0.120
35.440, 0.276
35.450, 0.581
35.460, 1.119
35.470, 1.974
35.480, 3.195
35.490, 4.746
35.500, 6.475
35.510, 8.124
35.520, 9.392
35.530, 10.035
35.540, 9.962
35.550, 9.276
35.560, 8.234
35.570, 7.155
35.580, 6.301
35.590, 5.793
35.600, 5.590
35.610, 5.531
35.620, 5.422
35.630, 5.114
35.640, 4.557
35.650, 3.796
35.660, 2.943
35.670, 2.119
35.680, 1.414
35.690, 0.874
35.700, 0.501
35.710, 0.265
35.720, 0.129
35.730, 0.058
35.740, 0.024
35.750, 0.009
35.760, 0.003
35.770, 0.001
35.780, 0.000
35.790, 0.000
35.800, 0.000
35.810, 0.000
35.820, 0.000
35.830, 0.000
35.840, 0.000
35.850, 0.000
35.860, 0.000
35.870, 0.000
35.880, 0.000
35.890, 0.000
35.900, 0.000
35.910, 0.000
35.920, 0.000
35.930, 0.000
35.940, 0.000
35.950, 0.000
35.960, 0.000
35.970, 0.000
35.980, 0.000
35.990, 0.000
36.000, 0.000
36.010, 0.000
36.020, 0.001
36.030, 0.004
36.040, 0.011
36.050, 0.030
36.060, 0.075
36.070, 0.169
36.080, 0.345
36.090, 0.636
36.100, 1.059
36.110, 1.595
36.120, 2.173
36.130, 2.684
36.140, 3.014
36.150, 3.101
36.160, 2.977
36.170, 2.761
36.180, 2.617
36.190, 2.676
36.200, 2.974
36.210, 3.424
36.220, 3.856
36.230, 4.084
36.240, 3.994
36.250, 3.590
36.260, 2.988
36.270, 2.358
36.280, 1.847
36.290, 1.532
36.300, 1.399
36.310, 1.372
36.320, 1.357
36.330, 1.281
36.340, 1.122
36.350, 0.897
36.360, 0.652
36.370, 0.432
36.380, 0.265
36.390, 0.163
36.400, 0.129
36.410, 0.164
36.420, 0.276
36.430, 0.475
36.440, 0.763
36.450, 1.121
36.460, 1.501
36.470, 1.835
36.480, 2.053
36.490, 2.115
36.500, 2.026
36.510, 1.840
36.520, 1.637
36.530, 1.509
36.540, 1.536
36.550, 1.794
36.560, 2.360
36.570, 3.303
36.580, 4.655
36.590, 6.347
36.600, 8.161
36.610, 9.742
36.620, 10.698
36.630, 10.761
36.640, 9.923
36.650, 8.461
36.660, 6.835
36.670, 5.502
36.680, 4.748
36.690, 4.605
36.700, 4.882
36.710, 5.265
36.720, 5.459
36.730, 5.294
36.740, 4.770
36.750, 4.014
36.760, 3.202
36.770, 2.469
36.780, 1.882
36.790, 1.438
36.800, 1.109
36.810, 0.864
36.820, 0.688
36.830, 0.574
36.840, 0.519
36.850, 0.506
36.860, 0.515
36.870, 0.520
36.880, 0.504
36.890, 0.458
36.900, 0.388
36.910, 0.303
36.920, 0.219
36.930, 0.145
36.940, 0.088
36.950, 0.049
36.960, 0.025
36.970, 0.012
36.980, 0.005
36.990, 0.002
37.000, 0.001
37.010, 0.000
37.020, 0.000
37.030, 0.000
37.040, 0.000
37.050, 0.000
37.060, 0.000
37.070, 0.000
37.080, 0.000
37.090, 0.000
37.100, 0.000
37.110, 0.000
37.120, 0.000
37.130, 0.000
37.140, 0.000
37.150, 0.000
37.160, 0.000
37.170, 0.000
37.180, 0.000
37.190, 0.000
37.200, 0.000
37.210, 0.000
37.220, 0.000
37.230, 0.000
37.240, 0.000
37.250, 0.000
37.260, 0.000
37.270, 0.000
37.280, 0.000
37.290, 0.000
37.300, 0.000
37.310, 0.000
37.320, 0.000
37.330, 0.000
37.340, 0.000
37.350, 0.000
37.360, 0.000
37.370, 0.000
37.380, 0.000
37.390, 0.000
37.400, 0.000
37.410, 0.000
37.420, 0.000
37.430, 0.000
37.440, 0.000
37.450, 0.000
37.460, 0.000
37.470, 0.000
37.480, 0.000
37.490, 0.000
37.500, 0.000
37.510, 0.000
37.520, 0.000
37.530, 0.000
37.540, 0.000
37.550, 0.000
37.560, 0.000
37.570, 0.001
37.580, 0.003
37.590, 0.010
37.600, 0.030
37.610, 0.088
37.620, 0.231
37.630, 0.547
37.640, 1.176
37.650, 2.288
37.660, 4.031
37.670, 6.432
37.680, 9.293
37.690, 12.164
37.700, 14.430
37.710, 15.536
37.720, 15.230
37.730, 13.705
37.740, 11.536
37.750, 9.449
37.760, 8.036
37.770, 7.555
37.780, 7.872
37.790, 8.564
37.800, 9.114
37.810, 9.112
37.820, 8.403
37.830, 7.107
37.840, 5.525
37.850, 3.992
37.860, 2.747
37.870, 1.875
37.880, 1.333
37.890, 1.013
37.900, 0.805
37.910, 0.638
37.920, 0.482
37.930, 0.338
37.940, 0.218
37.950, 0.127
37.960, 0.068
37.970, 0.033
37.980, 0.014
37.990, 0.006
38.000, 0.002
38.010, 0.001
38.020, 0.000
38.030, 0.000
38.040, 0.000
38.050, 0.000
38.060, 0.000
38.070, 0.000
38.080, 0.000
38.090, 0.000
38.100, 0.000
38.110, 0.000
38.120, 0.000
38.130, 0.000
38.140, 0.000
38.150, 0.000
38.160, 0.000
38.170, 0.000
38.180, 0.000
38.190, 0.000
38.200, 0.000
38.210, 0.000
38.220, 0.000
38.230, 0.000
38.240, 0.000
38.250, 0.000
38.260, 0.000
38.270, 0.000
38.280, 0.000
38.290, 0.000
38.300, 0.000
38.310, 0.000
38.320, 0.000
38.330, 0.001
38.340, 0.003
38.350, 0.007
38.360, 0.015
38.370, 0.031
38.380, 0.058
38.390, 0.098
38.400, 0.151
38.410, 0.210
38.420, 0.266
38.430, 0.305
38.440, 0.319
38.450, 0.304
38.460, 0.268
38.470, 0.223
38.480, 0.182
38.490, 0.156
38.500, 0.146
38.510, 0.151
38.520, 0.161
38.530, 0.169
38.540, 0.168
38.550, 0.155
38.560, 0.131
38.570, 0.103
38.580, 0.075
38.590, 0.051
38.600, 0.033
38.610, 0.021
38.620, 0.013
38.630, 0.008
38.640, 0.005
38.650, 0.003
38.660, 0.001
38.670, 0.001
38.680, 0.000
38.690, 0.000
38.700, 0.001
38.710, 0.003
38.720, 0.007
38.730, 0.017
38.740, 0.037
38.750, 0.075
38.760, 0.138
38.770, 0.232
38.780, 0.361
38.790, 0.522
38.800, 0.713
38.810, 0.936
38.820, 1.196
38.830, 1.496
38.840, 1.824
38.850, 2.141
38.860, 2.386
38.870, 2.493
38.880, 2.431
38.890, 2.213
38.900, 1.901
38.910, 1.582
38.920, 1.331
38.930, 1.197
38.940, 1.186
38.950, 1.268
38.960, 1.397
38.970, 1.527
38.980, 1.634
38.990, 1.731
39.000, 1.858
39.010, 2.062
39.020, 2.368
39.030, 2.752
39.040, 3.135
39.050, 3.413
39.060, 3.489
39.070, 3.327
39.080, 2.964
39.090, 2.497
39.100, 2.051
39.110, 1.726
39.120, 1.569
39.130, 1.569
39.140, 1.670
39.150, 1.796
39.160, 1.883
39.170, 1.901
39.180, 1.855
39.190, 1.769
39.200, 1.670
39.210, 1.562
39.220, 1.434
39.230, 1.271
39.240, 1.072
39.250, 0.858
39.260, 0.662
39.270, 0.520
39.280, 0.448
39.290, 0.444
39.300, 0.484
39.310, 0.536
39.320, 0.567
39.330, 0.555
39.340, 0.497
39.350, 0.406
39.360, 0.301
39.370, 0.202
39.380, 0.124
39.390, 0.069
39.400, 0.035
39.410, 0.016
39.420, 0.007
39.430, 0.002
39.440, 0.001
39.450, 0.000
39.460, 0.000
39.470, 0.000
39.480, 0.000
39.490, 0.000
39.500, 0.000
39.510, 0.001
39.520, 0.001
39.530, 0.003
39.540, 0.005
39.550, 0.009
39.560, 0.016
39.570, 0.028
39.580, 0.052
39.590, 0.101
39.600, 0.194
39.610, 0.358
39.620, 0.620
39.630, 0.988
39.640, 1.440
39.650, 1.910
39.660, 2.305
39.670, 2.527
39.680, 2.521
39.690, 2.296
39.700, 1.926
39.710, 1.523
39.720, 1.192
39.730, 1.003
39.740, 0.968
39.750, 1.048
39.760, 1.174
39.770, 1.269
39.780, 1.275
39.790, 1.175
39.800, 0.986
39.810, 0.753
39.820, 0.525
39.830, 0.341
39.840, 0.223
39.850, 0.179
39.860, 0.213
39.870, 0.332
39.880, 0.539
39.890, 0.828
39.900, 1.183
39.910, 1.572
39.920, 1.962
39.930, 2.335
39.940, 2.686
39.950, 3.014
39.960, 3.304
39.970, 3.516
39.980, 3.594
39.990, 3.503
40.000, 3.248
40.010, 2.883
40.020, 2.491
40.030, 2.149
40.040, 1.910
40.050, 1.785
40.060, 1.750
40.070, 1.752
40.080, 1.731
40.090, 1.637
40.100, 1.451
40.110, 1.189
40.120, 0.895
40.130, 0.615
40.140, 0.385
40.150, 0.219
40.160, 0.114
40.170, 0.053
40.180, 0.023
40.190, 0.009
40.200, 0.003
40.210, 0.001
40.220, 0.000
40.230, 0.000
40.240, 0.000
40.250, 0.000
40.260, 0.000
40.270, 0.000
40.280, 0.000
40.290, 0.000
40.300, 0.000
40.310, 0.000
40.320, 0.000
40.330, 0.000
40.340, 0.000
40.350, 0.000
40.360, 0.000
40.370, 0.000
40.380, 0.000
40.390, 0.000
40.400, 0.000
40.410, 0.000
40.420, 0.000
40.430, 0.000
40.440, 0.000
40.450, 0.001
40.460, 0.003
40.470, 0.008
40.480, 0.024
40.490, 0.062
40.500, 0.146
40.510, 0.315
40.520, 0.621
40.530, 1.121
40.540, 1.858
40.550, 2.849
40.560, 4.075
40.570, 5.493
40.580, 7.056
40.590, 8.717
40.600, 10.398
40.610, 11.952
40.620, 13.152
40.630, 13.745
40.640, 13.566
40.650, 12.642
40.660, 11.202
40.670, 9.604
40.680, 8.202
40.690, 7.230
40.700, 6.758
40.710, 6.695
40.720, 6.839
40.730, 6.940
40.740, 6.782
40.750, 6.249
40.760, 5.364
40.770, 4.262
40.780, 3.129
40.790, 2.126
40.800, 1.345
40.810, 0.799
40.820, 0.453
40.830, 0.255
40.840, 0.160
40.850, 0.142
40.860, 0.199
40.870, 0.349
40.880, 0.622
40.890, 1.051
40.900, 1.652
40.910, 2.409
40.920, 3.274
40.930, 4.184
40.940, 5.094
40.950, 5.998
40.960, 6.927
40.970, 7.914
40.980, 8.953
40.990, 9.988
41.000, 10.938
41.010, 11.729
41.020, 12.301
41.030, 12.597
41.040, 12.549
41.050, 12.109
41.060, 11.295
41.070, 10.220
41.080, 9.063
41.090, 8.005
41.100, 7.157
41.110, 6.543
41.120, 6.117
41.130, 5.793
41.140, 5.474
41.150, 5.072
41.160, 4.528
41.170, 3.834
41.180, 3.039
41.190, 2.234
41.200, 1.512
41.210, 0.938
41.220, 0.532
41.230, 0.275
41.240, 0.131
41.250, 0.060
41.260, 0.032
41.270, 0.032
41.280, 0.053
41.290, 0.097
41.300, 0.166
41.310, 0.261
41.320, 0.374
41.330, 0.489
41.340, 0.582
41.350, 0.633
41.360, 0.629
41.370, 0.573
41.380, 0.482
41.390, 0.383
41.400, 0.299
41.410, 0.247
41.420, 0.233
41.430, 0.249
41.440, 0.280
41.450, 0.310
41.460, 0.322
41.470, 0.309
41.480, 0.273
41.490, 0.220
41.500, 0.162
41.510, 0.109
41.520, 0.067
41.530, 0.038
41.540, 0.020
41.550, 0.009
41.560, 0.004
41.570, 0.002
41.580, 0.001
41.590, 0.001
41.600, 0.002
41.610, 0.006
41.620, 0.017
41.630, 0.046
41.640, 0.112
41.650, 0.247
41.660, 0.494
41.670, 0.899
41.680, 1.491
41.690, 2.251
41.700, 3.102
41.710, 3.905
41.720, 4.508
41.730, 4.795
41.740, 4.738
41.750, 4.403
41.760, 3.921
41.770, 3.430
41.780, 3.035
41.790, 2.787
41.800, 2.686
41.810, 2.690
41.820, 2.733
41.830, 2.744
41.840, 2.666
41.850, 2.480
41.860, 2.203
41.870, 1.878
41.880, 1.547
41.890, 1.240
41.900, 0.971
41.910, 0.747
41.920, 0.581
41.930, 0.497
41.940, 0.527
41.950, 0.703
41.960, 1.045
41.970, 1.543
41.980, 2.138
41.990, 2.733
42.000, 3.208
42.010, 3.467
42.020, 3.482
42.030, 3.313
42.040, 3.094
42.050, 2.992
42.060, 3.154
42.070, 3.650
42.080, 4.441
42.090, 5.371
42.100, 6.206
42.110, 6.705
42.120, 6.719
42.130, 6.248
42.140, 5.443
42.150, 4.537
42.160, 3.755
42.170, 3.235
42.180, 3.008
42.190, 3.004
42.200, 3.101
42.210, 3.168
42.220, 3.107
42.230, 2.876
42.240, 2.497
42.250, 2.039
42.260, 1.584
42.270, 1.200
42.280, 0.914
42.290, 0.717
42.300, 0.580
42.310, 0.472
42.320, 0.373
42.330, 0.279
42.340, 0.194
42.350, 0.124
42.360, 0.072
42.370, 0.039
42.380, 0.021
42.390, 0.016
42.400, 0.025
42.410, 0.057
42.420, 0.134
42.430, 0.288
42.440, 0.567
42.450, 1.015
42.460, 1.655
42.470, 2.456
42.480, 3.317
42.490, 4.078
42.500, 4.565
42.510, 4.655
42.520, 4.331
42.530, 3.694
42.540, 2.924
42.550, 2.218
42.560, 1.726
42.570, 1.517
42.580, 1.573
42.590, 1.807
42.600, 2.092
42.610, 2.300
42.620, 2.338
42.630, 2.176
42.640, 1.847
42.650, 1.428
42.660, 1.005
42.670, 0.644
42.680, 0.376
42.690, 0.199
42.700, 0.096
42.710, 0.042
42.720, 0.017
42.730, 0.006
42.740, 0.002
42.750, 0.001
42.760, 0.000
42.770, 0.000
42.780, 0.000
42.790, 0.000
42.800, 0.000
42.810, 0.001
42.820, 0.003
42.830, 0.009
42.840, 0.028
42.850, 0.078
42.860, 0.196
42.870, 0.449
42.880, 0.939
42.890, 1.795
42.900, 3.138
42.910, 5.023
42.920, 7.378
42.930, 9.977
42.940, 12.480
42.950, 14.529
42.960, 15.868
42.970, 16.415
42.980, 16.245
42.990, 15.526
43.000, 14.452
43.010, 13.206
43.020, 11.968
43.030, 10.895
43.040, 10.094
43.050, 9.583
43.060, 9.282
43.070, 9.060
43.080, 8.789
43.090, 8.384
43.100, 7.806
43.110, 7.049
43.120, 6.126
43.130, 5.076
43.140, 3.971
43.150, 2.907
43.160, 1.977
43.170, 1.241
43.180, 0.716
43.190, 0.379
43.200, 0.184
43.210, 0.081
43.220, 0.033
43.230, 0.012
43.240, 0.004
43.250, 0.001
43.260, 0.000
43.270, 0.000
43.280, 0.000
43.290, 0.000
43.300, 0.000
43.310, 0.000
43.320, 0.000
43.330, 0.000
43.340, 0.000
43.350, 0.000
43.360, 0.000
43.370, 0.000
43.380, 0.000
43.390, 0.000
43.400, 0.000
43.410, 0.000
43.420, 0.000
43.430, 0.000
43.440, 0.000
43.450, 0.000
43.460, 0.000
43.470, 0.000
43.480, 0.000
43.490, 0.000
43.500, 0.000
43.510, 0.000
43.520, 0.000
43.530, 0.000
43.540, 0.000
43.550, 0.000
43.560, 0.000
43.570, 0.000
43.580, 0.000
43.590, 0.000
43.600, 0.000
43.610, 0.000
43.620, 0.001
43.630, 0.003
43.640, 0.007
43.650, 0.017
43.660, 0.038
43.670, 0.076
43.680, 0.139
43.690, 0.235
43.700, 0.365
43.710, 0.524
43.720, 0.701
43.730, 0.883
43.740, 1.062
43.750, 1.236
43.760, 1.409
43.770, 1.586
43.780, 1.767
43.790, 1.944
43.800, 2.106
43.810, 2.238
43.820, 2.322
43.830, 2.338
43.840, 2.270
43.850, 2.118
43.860, 1.905
43.870, 1.668
43.880, 1.451
43.890, 1.284
43.900, 1.178
43.910, 1.123
43.920, 1.099
43.930, 1.081
43.940, 1.046
43.950, 0.980
43.960, 0.874
43.970, 0.735
43.980, 0.577
43.990, 0.419
44.000, 0.281
44.010, 0.174
44.020, 0.101
44.030, 0.062
44.040, 0.056
44.050, 0.093
44.060, 0.196
44.070, 0.409
44.080, 0.789
44.090, 1.396
44.100, 2.257
44.110, 3.344
44.120, 4.548
44.130, 5.703
44.140, 6.628
44.150, 7.196
44.160, 7.370
44.170, 7.203
44.180, 6.798
44.190, 6.261
44.200, 5.682
44.210, 5.135
44.220, 4.683
44.230, 4.367
44.240, 4.190
44.250, 4.110
44.260, 4.057
44.270, 3.964
44.280, 3.795
44.290, 3.541
44.300, 3.213
44.310, 2.824
44.320, 2.388
44.330, 1.923
44.340, 1.460
44.350, 1.035
44.360, 0.680
44.370, 0.412
44.380, 0.230
44.390, 0.122
44.400, 0.072
44.410, 0.073
44.420, 0.134
44.430, 0.289
44.440, 0.598
44.450, 1.137
44.460, 1.977
44.470, 3.135
44.480, 4.538
44.490, 5.994
44.500, 7.226
44.510, 7.951
44.520, 7.989
44.530, 7.340
44.540, 6.190
44.550, 4.843
44.560, 3.617
44.570, 2.752
44.580, 2.362
44.590, 2.428
44.600, 2.826
44.610, 3.362
44.620, 3.824
44.630, 4.039
44.640, 3.916
44.650, 3.472
44.660, 2.812
44.670, 2.078
44.680, 1.401
44.690, 0.862
44.700, 0.484
44.710, 0.248
44.720, 0.116
44.730, 0.049
44.740, 0.019
44.750, 0.007
44.760, 0.002
44.770, 0.001
44.780, 0.000
44.790, 0.000
44.800, 0.000
44.810, 0.000
44.820, 0.000
44.830, 0.000
44.840, 0.000
44.850, 0.000
44.860, 0.000
44.870, 0.000
44.880, 0.000
44.890, 0.000
44.900, 0.000
44.910, 0.000
44.920, 0.000
44.930, 0.000
44.940, 0.000
44.950, 0.000
44.960, 0.000
44.970, 0.000
44.980, 0.000
44.990, 0.000
45.000, 0.000
45.010, 0.000
45.020, 0.000
45.030, 0.000
45.040, 0.000
45.050, 0.000
45.060, 0.000
45.070, 0.000
45.080, 0.001
45.090, 0.002
45.100, 0.004
45.110, 0.008
45.120, 0.016
45.130, 0.027
45.140, 0.042
45.150, 0.061
45.160, 0.084
45.170, 0.111
45.180, 0.144
45.190, 0.187
45.200, 0.246
45.210, 0.323
45.220, 0.415
45.230, 0.509
45.240, 0.586
45.250, 0.627
45.260, 0.621
45.270, 0.571
45.280, 0.496
45.290, 0.420
45.300, 0.373
45.310, 0.382
45.320, 0.463
45.330, 0.619
45.340, 0.833
45.350, 1.069
45.360, 1.279
45.370, 1.411
45.380, 1.430
45.390, 1.333
45.400, 1.144
45.410, 0.910
45.420, 0.683
45.430, 0.503
45.440, 0.394
45.450, 0.360
45.460, 0.385
45.470, 0.447
45.480, 0.515
45.490, 0.561
45.500, 0.568
45.510, 0.530
45.520, 0.454
45.530, 0.358
45.540, 0.260
45.550, 0.173
45.560, 0.106
45.570, 0.060
45.580, 0.031
45.590, 0.015
45.600, 0.007
45.610, 0.003
45.620, 0.001
45.630, 0.000
45.640, 0.000
45.650, 0.000
45.660, 0.000
45.670, 0.000
45.680, 0.000
45.690, 0.000
45.700, 0.000
45.710, 0.000
45.720, 0.000
45.730, 0.000
45.740, 0.000
45.750, 0.000
45.760, 0.000
45.770, 0.000
45.780, 0.000
45.790, 0.000
45.800, 0.000
45.810, 0.000
45.820, 0.000
45.830, 0.000
45.840, 0.000
45.850, 0.000
45.860, 0.000
45.870, 0.000
45.880, 0.000
45.890, 0.000
45.900, 0.000
45.910, 0.000
45.920, 0.000
45.930, 0.000
45.940, 0.000
45.950, 0.001
45.960, 0.002
45.970, 0.005
45.980, 0.012
45.990, 0.028
46.000, 0.057
46.010, 0.108
46.020, 0.189
46.030, 0.306
46.040, 0.462
46.050, 0.655
46.060, 0.878
46.070, 1.119
46.080, 1.363
46.090, 1.586
46.100, 1.759
46.110, 1.853
46.120, 1.843
46.130, 1.729
46.140, 1.534
46.150, 1.303
46.160, 1.082
46.170, 0.912
46.180, 0.812
46.190, 0.780
46.200, 0.802
46.210, 0.853
46.220, 0.907
46.230, 0.936
46.240, 0.922
46.250, 0.854
46.260, 0.741
46.270, 0.598
46.280, 0.449
46.290, 0.314
46.300, 0.205
46.310, 0.127
46.320, 0.076
46.330, 0.050
46.340, 0.048
46.350, 0.078
46.360, 0.160
46.370, 0.327
46.380, 0.628
46.390, 1.111
46.400, 1.805
46.410, 2.696
46.420, 3.700
46.430, 4.667
46.440, 5.411
46.450, 5.770
46.460, 5.661
46.470, 5.117
46.480, 4.279
46.490, 3.346
46.500, 2.516
46.510, 1.933
46.520, 1.667
46.530, 1.705
46.540, 1.971
46.550, 2.347
46.560, 2.698
46.570, 2.907
46.580, 2.902
46.590, 2.672
46.600, 2.268
46.610, 1.774
46.620, 1.282
46.630, 0.859
46.640, 0.542
46.650, 0.333
46.660, 0.217
46.670, 0.168
46.680, 0.160
46.690, 0.171
46.700, 0.186
46.710, 0.193
46.720, 0.187
46.730, 0.169
46.740, 0.142
46.750, 0.112
46.760, 0.085
46.770, 0.066
46.780, 0.057
46.790, 0.057
46.800, 0.065
46.810, 0.076
46.820, 0.089
46.830, 0.102
46.840, 0.116
46.850, 0.133
46.860, 0.157
46.870, 0.191
46.880, 0.235
46.890, 0.283
46.900, 0.329
46.910, 0.367
46.920, 0.396
46.930, 0.424
46.940, 0.466
46.950, 0.543
46.960, 0.675
46.970, 0.866
46.980, 1.100
46.990, 1.340
47.000, 1.541
47.010, 1.665
47.020, 1.700
47.030, 1.670
47.040, 1.636
47.050, 1.674
47.060, 1.857
47.070, 2.230
47.080, 2.791
47.090, 3.494
47.100, 4.259
47.110, 4.993
47.120, 5.610
47.130, 6.035
47.140, 6.207
47.150, 6.092
47.160, 5.692
47.170, 5.069
47.180, 4.335
47.190, 3.631
47.200, 3.084
47.210, 2.776
47.220, 2.731
47.230, 2.929
47.240, 3.329
47.250, 3.881
47.260, 4.526
47.270, 5.185
47.280, 5.759
47.290, 6.134
47.300, 6.216
47.310, 5.958
47.320, 5.380
47.330, 4.568
47.340, 3.656
47.350, 2.788
47.360, 2.084
47.370, 1.618
47.380, 1.407
47.390, 1.422
47.400, 1.596
47.410, 1.843
47.420, 2.071
47.430, 2.202
47.440, 2.187
47.450, 2.016
47.460, 1.720
47.470, 1.355
47.480, 0.984
47.490, 0.659
47.500, 0.406
47.510, 0.230
47.520, 0.120
47.530, 0.057
47.540, 0.025
47.550, 0.010
47.560, 0.004
47.570, 0.001
47.580, 0.000
47.590, 0.000
47.600, 0.000
47.610, 0.000
47.620, 0.000
47.630, 0.000
47.640, 0.000
47.650, 0.000
47.660, 0.000
47.670, 0.000
47.680, 0.000
47.690, 0.000
47.700, 0.000
47.710, 0.000
47.720, 0.000
47.730, 0.000
47.740, 0.002
47.750, 0.005
47.760, 0.012
47.770, 0.031
47.780, 0.069
47.790, 0.145
47.800, 0.279
47.810, 0.495
47.820, 0.811
47.830, 1.231
47.840, 1.728
47.850, 2.251
47.860, 2.718
47.870, 3.047
47.880, 3.171
47.890, 3.066
47.900, 2.759
47.910, 2.323
47.920, 1.858
47.930, 1.458
47.940, 1.192
47.950, 1.092
47.960, 1.144
47.970, 1.304
47.980, 1.509
47.990, 1.689
48.000, 1.787
48.010, 1.769
48.020, 1.632
48.030, 1.402
48.040, 1.121
48.050, 0.838
48.060, 0.592
48.070, 0.404
48.080, 0.278
48.090, 0.203
48.100, 0.163
48.110, 0.142
48.120, 0.126
48.130, 0.109
48.140, 0.089
48.150, 0.068
48.160, 0.048
48.170, 0.031
48.180, 0.019
48.190, 0.010
48.200, 0.005
48.210, 0.002
48.220, 0.001
48.230, 0.000
48.240, 0.000
48.250, 0.000
48.260, 0.000
48.270, 0.000
48.280, 0.000
48.290, 0.000
48.300, 0.000
48.310, 0.000
48.320, 0.000
48.330, 0.000
48.340, 0.000
48.350, 0.000
48.360, 0.000
48.370, 0.000
48.380, 0.000
48.390, 0.000
48.400, 0.000
48.410, 0.000
48.420, 0.000
48.430, 0.000
48.440, 0.000
48.450, 0.000
48.460, 0.000
48.470, 0.000
48.480, 0.000
48.490, 0.000
48.500, 0.000
48.510, 0.000
48.520, 0.000
48.530, 0.000
48.540, 0.000
48.550, 0.000
48.560, 0.000
48.570, 0.000
48.580, 0.000
48.590, 0.000
48.600, 0.000
48.610, 0.001
48.620, 0.002
48.630, 0.004
48.640, 0.008
48.650, 0.017
48.660, 0.032
48.670, 0.054
48.680, 0.084
48.690, 0.120
48.700, 0.157
48.710, 0.192
48.720, 0.217
48.730, 0.230
48.740, 0.234
48.750, 0.231
48.760, 0.225
48.770, 0.221
48.780, 0.217
48.790, 0.212
48.800, 0.204
48.810, 0.194
48.820, 0.181
48.830, 0.168
48.840, 0.157
48.850, 0.148
48.860, 0.139
48.870, 0.133
48.880, 0.130
48.890, 0.132
48.900, 0.138
48.910, 0.148
48.920, 0.157
48.930, 0.164
48.940, 0.167
48.950, 0.164
48.960, 0.158
48.970, 0.151
48.980, 0.143
48.990, 0.137
49.000, 0.131
49.010, 0.127
49.020, 0.122
49.030, 0.118
49.040, 0.112
49.050, 0.106
49.060, 0.098
49.070, 0.091
49.080, 0.084
49.090, 0.077
49.100, 0.072
49.110, 0.069
49.120, 0.066
49.130, 0.063
49.140, 0.060
49.150, 0.056
49.160, 0.051
49.170, 0.045
49.180, 0.037
49.190, 0.030
49.200, 0.022
49.210, 0.015
49.220, 0.010
49.230, 0.006
49.240, 0.003
49.250, 0.002
49.260, 0.001
49.270, 0.000
49.280, 0.000
49.290, 0.000
49.300, 0.001
49.310, 0.002
49.320, 0.004
49.330, 0.011
49.340, 0.027
49.350, 0.058
49.360, 0.115
49.370, 0.209
49.380, 0.351
49.390, 0.544
49.400, 0.777
49.410, 1.027
49.420, 1.256
49.430, 1.431
49.440, 1.529
49.450, 1.557
49.460, 1.552
49.470, 1.579
49.480, 1.712
49.490, 2.011
49.500, 2.498
49.510, 3.139
49.520, 3.844
49.530, 4.482
49.540, 4.920
49.550, 5.054
49.560, 4.850
49.570, 4.348
49.580, 3.654
49.590, 2.907
49.600, 2.241
49.610, 1.753
49.620, 1.492
49.630, 1.451
49.640, 1.584
49.650, 1.812
49.660, 2.047
49.670, 2.205
49.680, 2.230
49.690, 2.102
49.700, 1.840
49.710, 1.493
49.720, 1.121
49.730, 0.778
49.740, 0.498
49.750, 0.294
49.760, 0.160
49.770, 0.080
49.780, 0.037
49.790, 0.016
49.800, 0.006
49.810, 0.002
49.820, 0.001
49.830, 0.000
49.840, 0.001
49.850, 0.002
49.860, 0.005
49.870, 0.012
49.880, 0.025
49.890, 0.049
49.900, 0.089
49.910, 0.147
49.920, 0.223
49.930, 0.311
49.940, 0.398
49.950, 0.466
49.960, 0.501
49.970, 0.494
49.980, 0.447
49.990, 0.372
50.000, 0.286
50.010, 0.207
50.020, 0.148
50.030, 0.117
50.040, 0.118
50.050, 0.154
50.060, 0.226
50.070, 0.342
50.080, 0.508
50.090, 0.733
50.100, 1.019
50.110, 1.356
50.120, 1.713
50.130, 2.040
50.140, 2.278
50.150, 2.373
50.160, 2.300
50.170, 2.071
50.180, 1.734
50.190, 1.357
50.200, 1.008
50.210, 0.741
50.220, 0.586
50.230, 0.548
50.240, 0.613
50.250, 0.747
50.260, 0.910
50.270, 1.054
50.280, 1.141
50.290, 1.146
50.300, 1.064
50.310, 0.914
50.320, 0.726
50.330, 0.533
50.340, 0.361
50.350, 0.226
50.360, 0.131
50.370, 0.070
50.380, 0.034
50.390, 0.016
50.400, 0.007
50.410, 0.003
50.420, 0.002
50.430, 0.003
50.440, 0.006
50.450, 0.015
50.460, 0.034
50.470, 0.071
50.480, 0.138
50.490, 0.248
50.500, 0.415
50.510, 0.652
50.520, 0.965
50.530, 1.353
50.540, 1.807
50.550, 2.303
50.560, 2.795
50.570, 3.220
50.580, 3.505
50.590, 3.584
50.600, 3.429
50.610, 3.064
50.620, 2.564
50.630, 2.033
50.640, 1.569
50.650, 1.241
50.660, 1.075
50.670, 1.062
50.680, 1.168
50.690, 1.345
50.700, 1.542
50.710, 1.705
50.720, 1.786
50.730, 1.756
50.740, 1.608
50.750, 1.366
50.760, 1.072
50.770, 0.776
50.780, 0.518
50.790, 0.317
50.800, 0.179
50.810, 0.092
50.820, 0.044
50.830, 0.019
50.840, 0.008
50.850, 0.003
50.860, 0.001
50.870, 0.000
50.880, 0.000
50.890, 0.000
50.900, 0.000
50.910, 0.000
50.920, 0.000
50.930, 0.000
50.940, 0.000
50.950, 0.000
50.960, 0.000
50.970, 0.000
50.980, 0.000
50.990, 0.000
51.000, 0.000
51.010, 0.000
51.020, 0.000
51.030, 0.000
51.040, 0.000
51.050, 0.000
51.060, 0.000
51.070, 0.000
51.080, 0.000
51.090, 0.000
51.100, 0.000
51.110, 0.000
51.120, 0.000
51.130, 0.000
51.140, 0.000
51.150, 0.000
51.160, 0.000
51.170, 0.000
51.180, 0.000
51.190, 0.000
51.200, 0.000
51.210, 0.000
51.220, 0.000
51.230, 0.000
51.240, 0.000
51.250, 0.000
51.260, 0.000
51.270, 0.000
51.280, 0.000
51.290, 0.000
51.300, 0.000
51.310, 0.000
51.320, 0.000
51.330, 0.000
51.340, 0.000
51.350, 0.000
51.360, 0.000
51.370, 0.000
51.380, 0.000
51.390, 0.000
51.400, 0.000
51.410, 0.000
51.420, 0.000
51.430, 0.001
51.440, 0.003
51.450, 0.008
51.460, 0.022
51.470, 0.052
51.480, 0.118
51.490, 0.243
51.500, 0.465
51.510, 0.823
51.520, 1.348
51.530, 2.046
51.540, 2.879
51.550, 3.761
51.560, 4.565
51.570, 5.150
51.580, 5.409
51.590, 5.300
51.600, 4.866
51.610, 4.225
51.620, 3.532
51.630, 2.935
51.640, 2.539
51.650, 2.388
51.660, 2.469
51.670, 2.733
51.680, 3.115
51.690, 3.545
51.700, 3.957
51.710, 4.289
51.720, 4.486
51.730, 4.510
51.740, 4.343
51.750, 4.001
51.760, 3.526
51.770, 2.983
51.780, 2.440
51.790, 1.955
51.800, 1.562
51.810, 1.274
51.820, 1.094
51.830, 1.022
51.840, 1.066
51.850, 1.239
51.860, 1.551
51.870, 1.992
51.880, 2.529
51.890, 3.094
51.900, 3.598
51.910, 3.944
51.920, 4.059
51.930, 3.910
51.940, 3.520
51.950, 2.961
51.960, 2.333
51.970, 1.738
51.980, 1.258
51.990, 0.944
52.000, 0.817
52.010, 0.869
52.020, 1.071
52.030, 1.372
52.040, 1.706
52.050, 1.996
52.060, 2.176
52.070, 2.209
52.080, 2.095
52.090, 1.872
52.100, 1.602
52.110, 1.345
52.120, 1.142
52.130, 1.004
52.140, 0.916
52.150, 0.854
52.160, 0.793
52.170, 0.722
52.180, 0.642
52.190, 0.562
52.200, 0.494
52.210, 0.447
52.220, 0.434
52.230, 0.465
52.240, 0.552
52.250, 0.700
52.260, 0.906
52.270, 1.160
52.280, 1.449
52.290, 1.765
52.300, 2.117
52.310, 2.527
52.320, 3.011
52.330, 3.561
52.340, 4.129
52.350, 4.628
52.360, 4.966
52.370, 5.085
52.380, 4.994
52.390, 4.775
52.400, 4.549
52.410, 4.420
52.420, 4.431
52.430, 4.550
52.440, 4.689
52.450, 4.756
52.460, 4.697
52.470, 4.508
52.480, 4.224
52.490, 3.888
52.500, 3.530
52.510, 3.166
52.520, 2.808
52.530, 2.480
52.540, 2.215
52.550, 2.038
52.560, 1.951
52.570, 1.922
52.580, 1.898
52.590, 1.822
52.600, 1.663
52.610, 1.422
52.620, 1.130
52.630, 0.835
52.640, 0.576
52.650, 0.382
52.660, 0.259
52.670, 0.204
52.680, 0.209
52.690, 0.261
52.700, 0.347
52.710, 0.452
52.720, 0.554
52.730, 0.631
52.740, 0.665
52.750, 0.645
52.760, 0.578
52.770, 0.478
52.780, 0.367
52.790, 0.265
52.800, 0.187
52.810, 0.140
52.820, 0.125
52.830, 0.139
52.840, 0.174
52.850, 0.222
52.860, 0.272
52.870, 0.312
52.880, 0.331
52.890, 0.324
52.900, 0.292
52.910, 0.242
52.920, 0.185
52.930, 0.130
52.940, 0.084
52.950, 0.049
52.960, 0.027
52.970, 0.013
52.980, 0.006
52.990, 0.003
53.000, 0.001
53.010, 0.000
53.020, 0.000
53.030, 0.000
53.040, 0.000
53.050, 0.000
53.060, 0.000
53.070, 0.000
53.080, 0.000
53.090, 0.000
53.100, 0.000
53.110, 0.000
53.120, 0.000
53.130, 0.001
53.140, 0.003
53.150, 0.008
53.160, 0.019
53.170, 0.041
53.180, 0.080
53.190, 0.145
53.200, 0.240
53.210, 0.367
53.220, 0.517
53.230, 0.675
53.240, 0.821
53.250, 0.939
53.260, 1.030
53.270, 1.108
53.280, 1.200
53.290, 1.329
53.300, 1.501
53.310, 1.692
53.320, 1.857
53.330, 1.947
53.340, 1.930
53.350, 1.805
53.360, 1.601
53.370, 1.361
53.380, 1.128
53.390, 0.933
53.400, 0.788
53.410, 0.698
53.420, 0.662
53.430, 0.676
53.440, 0.734
53.450, 0.815
53.460, 0.894
53.470, 0.939
53.480, 0.928
53.490, 0.854
53.500, 0.728
53.510, 0.572
53.520, 0.414
53.530, 0.276
53.540, 0.169
53.550, 0.095
53.560, 0.049
53.570, 0.024
53.580, 0.010
53.590, 0.004
53.600, 0.002
53.610, 0.001
53.620, 0.000
53.630, 0.000
53.640, 0.000
53.650, 0.000
53.660, 0.000
53.670, 0.000
53.680, 0.000
53.690, 0.000
53.700, 0.001
53.710, 0.002
53.720, 0.003
53.730, 0.006
53.740, 0.010
53.750, 0.017
53.760, 0.029
53.770, 0.049
53.780, 0.082
53.790, 0.132
53.800, 0.207
53.810, 0.311
53.820, 0.449
53.830, 0.624
53.840, 0.831
53.850, 1.058
53.860, 1.279
53.870, 1.461
53.880, 1.568
53.890, 1.572
53.900, 1.468
53.910, 1.277
53.920, 1.037
53.930, 0.794
53.940, 0.589
53.950, 0.447
53.960, 0.378
53.970, 0.378
53.980, 0.439
53.990, 0.548
54.000, 0.691
54.010, 0.851
54.020, 1.006
54.030, 1.135
54.040, 1.217
54.050, 1.244
54.060, 1.219
54.070, 1.159
54.080, 1.086
54.090, 1.021
54.100, 0.976
54.110, 0.948
54.120, 0.924
54.130, 0.888
54.140, 0.831
54.150, 0.755
54.160, 0.673
54.170, 0.602
54.180, 0.558
54.190, 0.546
54.200, 0.565
54.210, 0.611
54.220, 0.689
54.230, 0.817
54.240, 1.027
54.250, 1.360
54.260, 1.853
54.270, 2.516
54.280, 3.317
54.290, 4.173
54.300, 4.959
54.310, 5.540
54.320, 5.809
54.330, 5.731
54.340, 5.354
54.350, 4.797
54.360, 4.207
54.370, 3.718
54.380, 3.411
54.390, 3.309
54.400, 3.384
54.410, 3.585
54.420, 3.851
54.430, 4.119
54.440, 4.328
54.450, 4.419
54.460, 4.346
54.470, 4.092
54.480, 3.681
54.490, 3.173
54.500, 2.649
54.510, 2.188
54.520, 1.837
54.530, 1.609
54.540, 1.483
54.550, 1.418
54.560, 1.369
54.570, 1.306
54.580, 1.211
54.590, 1.084
54.600, 0.935
54.610, 0.781
54.620, 0.647
54.630, 0.558
54.640, 0.540
54.650, 0.613
54.660, 0.783
54.670, 1.037
54.680, 1.336
54.690, 1.628
54.700, 1.854
54.710, 1.975
54.720, 1.983
54.730, 1.905
54.740, 1.789
54.750, 1.683
54.760, 1.614
54.770, 1.583
54.780, 1.566
54.790, 1.539
54.800, 1.489
54.810, 1.421
54.820, 1.351
54.830, 1.293
54.840, 1.249
54.850, 1.212
54.860, 1.172
54.870, 1.127
54.880, 1.086
54.890, 1.063
54.900, 1.067
54.910, 1.094
54.920, 1.126
54.930, 1.137
54.940, 1.109
54.950, 1.039
54.960, 0.936
54.970, 0.820
54.980, 0.710
54.990, 0.616
55.000, 0.540
55.010, 0.480
55.020, 0.431
55.030, 0.394
55.040, 0.368
55.050, 0.352
55.060, 0.344
55.070, 0.338
55.080, 0.332
55.090, 0.327
55.100, 0.331
55.110, 0.356
55.120, 0.417
55.130, 0.527
55.140, 0.690
55.150, 0.899
55.160, 1.133
55.170, 1.357
55.180, 1.528
55.190, 1.609
55.200, 1.579
55.210, 1.439
55.220, 1.217
55.230, 0.955
55.240, 0.699
55.250, 0.485
55.260, 0.334
55.270, 0.253
55.280, 0.240
55.290, 0.285
55.300, 0.375
55.310, 0.489
55.320, 0.605
55.330, 0.697
55.340, 0.744
55.350, 0.737
55.360, 0.680
55.370, 0.593
55.380, 0.505
55.390, 0.452
55.400, 0.461
55.410, 0.552
55.420, 0.726
55.430, 0.964
55.440, 1.225
55.450, 1.456
55.460, 1.604
55.470, 1.632
55.480, 1.532
55.490, 1.330
55.500, 1.071
55.510, 0.812
55.520, 0.596
55.530, 0.452
55.540, 0.391
55.550, 0.405
55.560, 0.481
55.570, 0.597
55.580, 0.730
55.590, 0.854
55.600, 0.943
55.610, 0.977
55.620, 0.946
55.630, 0.855
55.640, 0.719
55.650, 0.565
55.660, 0.419
55.670, 0.299
55.680, 0.216
55.690, 0.170
55.700, 0.154
55.710, 0.157
55.720, 0.167
55.730, 0.174
55.740, 0.173
55.750, 0.161
55.760, 0.142
55.770, 0.122
55.780, 0.109
55.790, 0.118
55.800, 0.167
55.810, 0.278
55.820, 0.480
55.830, 0.793
55.840, 1.224
55.850, 1.748
55.860, 2.303
55.870, 2.798
55.880, 3.132
55.890, 3.232
55.900, 3.074
55.910, 2.696
55.920, 2.181
55.930, 1.633
55.940, 1.141
55.950, 0.766
55.960, 0.537
55.970, 0.458
55.980, 0.521
55.990, 0.711
56.000, 1.007
56.010, 1.373
56.020, 1.764
56.030, 2.124
56.040, 2.406
56.050, 2.576
56.060, 2.633
56.070, 2.599
56.080, 2.515
56.090, 2.422
56.100, 2.348
56.110, 2.302
56.120, 2.271
56.130, 2.230
56.140, 2.152
56.150, 2.021
56.160, 1.836
56.170, 1.617
56.180, 1.395
56.190, 1.201
56.200, 1.056
56.210, 0.969
56.220, 0.934
56.230, 0.937
56.240, 0.966
56.250, 1.007
56.260, 1.051
56.270, 1.090
56.280, 1.115
56.290, 1.119
56.300, 1.099
56.310, 1.057
56.320, 0.999
56.330, 0.939
56.340, 0.888
56.350, 0.860
56.360, 0.863
56.370, 0.903
56.380, 0.981
56.390, 1.092
56.400, 1.225
56.410, 1.369
56.420, 1.521
56.430, 1.683
56.440, 1.867
56.450, 2.078
56.460, 2.304
56.470, 2.509
56.480, 2.644
56.490, 2.664
56.500, 2.555
56.510, 2.344
56.520, 2.097
56.530, 1.898
56.540, 1.821
56.550, 1.909
56.560, 2.159
56.570, 2.522
56.580, 2.920
56.590, 3.262
56.600, 3.471
56.610, 3.505
56.620, 3.355
56.630, 3.051
56.640, 2.644
56.650, 2.192
56.660, 1.753
56.670, 1.372
56.680, 1.084
56.690, 0.908
56.700, 0.847
56.710, 0.889
56.720, 1.006
56.730, 1.155
56.740, 1.289
56.750, 1.368
56.760, 1.365
56.770, 1.279
56.780, 1.136
56.790, 0.973
56.800, 0.832
56.810, 0.744
56.820, 0.718
56.830, 0.745
56.840, 0.800
56.850, 0.849
56.860, 0.866
56.870, 0.836
56.880, 0.759
56.890, 0.648
56.900, 0.527
56.910, 0.418
56.920, 0.344
56.930, 0.319
56.940, 0.349
56.950, 0.435
56.960, 0.566
56.970, 0.723
56.980, 0.880
56.990, 1.007
57.000, 1.081
57.010, 1.088
57.020, 1.030
57.030, 0.921
57.040, 0.783
57.050, 0.637
57.060, 0.501
57.070, 0.387
57.080, 0.302
57.090, 0.251
57.100, 0.234
57.110, 0.249
57.120, 0.293
57.130, 0.365
57.140, 0.472
57.150, 0.633
57.160, 0.885
57.170, 1.277
57.180, 1.854
57.190, 2.635
57.200, 3.583
57.210, 4.594
57.220, 5.508
57.230, 6.149
57.240, 6.379
57.250, 6.149
57.260, 5.520
57.270, 4.648
57.280, 3.736
57.290, 2.984
57.300, 2.539
57.310, 2.481
57.320, 2.813
57.330, 3.472
57.340, 4.340
57.350, 5.265
57.360, 6.078
57.370, 6.625
57.380, 6.799
57.390, 6.561
57.400, 5.951
57.410, 5.078
57.420, 4.088
57.430, 3.131
57.440, 2.327
57.450, 1.751
57.460, 1.427
57.470, 1.336
57.480, 1.426
57.490, 1.627
57.500, 1.858
57.510, 2.044
57.520, 2.126
57.530, 2.073
57.540, 1.888
57.550, 1.604
57.560, 1.272
57.570, 0.943
57.580, 0.656
57.590, 0.434
57.600, 0.276
57.610, 0.175
57.620, 0.113
57.630, 0.076
57.640, 0.054
57.650, 0.038
57.660, 0.027
57.670, 0.018
57.680, 0.011
57.690, 0.007
57.700, 0.004
57.710, 0.002
57.720, 0.001
57.730, 0.000
57.740, 0.000
57.750, 0.000
57.760, 0.000
57.770, 0.000
57.780, 0.000
57.790, 0.000
57.800, 0.000
57.810, 0.000
57.820, 0.000
57.830, 0.000
57.840, 0.000
57.850, 0.000
57.860, 0.000
57.870, 0.000
57.880, 0.000
57.890, 0.001
57.900, 0.002
57.910, 0.004
57.920, 0.008
57.930, 0.015
57.940, 0.026
57.950, 0.040
57.960, 0.057
57.970, 0.076
57.980, 0.093
57.990, 0.106
58.000, 0.111
58.010, 0.108
58.020, 0.101
58.030, 0.094
58.040, 0.095
58.050, 0.115
58.060, 0.166
58.070, 0.257
58.080, 0.393
58.090, 0.571
58.100, 0.774
58.110, 0.972
58.120, 1.129
58.130, 1.213
58.140, 1.204
58.150, 1.106
58.160, 0.940
58.170, 0.740
58.180, 0.542
58.190, 0.373
58.200, 0.251
58.210, 0.184
58.220, 0.173
58.230, 0.220
58.240, 0.324
58.250, 0.485
58.260, 0.693
58.270, 0.933
58.280, 1.177
58.290, 1.397
58.300, 1.570
58.310, 1.687
58.320, 1.761
58.330, 1.818
58.340, 1.887
58.350, 1.979
58.360, 2.084
58.370, 2.168
58.380, 2.191
58.390, 2.125
58.400, 1.970
58.410, 1.751
58.420, 1.512
58.430, 1.293
58.440, 1.121
58.450, 1.000
58.460, 0.926
58.470, 0.885
58.480, 0.870
58.490, 0.879
58.500, 0.913
58.510, 0.967
58.520, 1.030
58.530, 1.084
58.540, 1.110
58.550, 1.102
58.560, 1.072
58.570, 1.043
58.580, 1.048
58.590, 1.113
58.600, 1.245
58.610, 1.430
58.620, 1.631
58.630, 1.809
58.640, 1.928
58.650, 1.974
58.660, 1.957
58.670, 1.908
58.680, 1.868
58.690, 1.875
58.700, 1.950
58.710, 2.096
58.720, 2.293
58.730, 2.515
58.740, 2.736
58.750, 2.934
58.760, 3.099
58.770, 3.214
58.780, 3.259
58.790, 3.211
58.800, 3.056
58.810, 2.797
58.820, 2.467
58.830, 2.117
58.840, 1.801
58.850, 1.563
58.860, 1.422
58.870, 1.374
58.880, 1.393
58.890, 1.446
58.900, 1.502
58.910, 1.540
58.920, 1.550
58.930, 1.534
58.940, 1.498
58.950, 1.450
58.960, 1.398
58.970, 1.351
58.980, 1.314
58.990, 1.292
59.000, 1.287
59.010, 1.295
59.020, 1.316
59.030, 1.352
59.040, 1.412
59.050, 1.511
59.060, 1.666
59.070, 1.898
59.080, 2.220
59.090, 2.633
59.100, 3.111
59.110, 3.610
59.120, 4.069
59.130, 4.436
59.140, 4.674
59.150, 4.772
59.160, 4.737
59.170, 4.579
59.180, 4.308
59.190, 3.935
59.200, 3.484
59.210, 2.996
59.220, 2.529
59.230, 2.142
59.240, 1.881
59.250, 1.764
59.260, 1.777
59.270, 1.878
59.280, 2.016
59.290, 2.140
59.300, 2.216
59.310, 2.229
59.320, 2.180
59.330, 2.074
59.340, 1.918
59.350, 1.715
59.360, 1.473
59.370, 1.205
59.380, 0.932
59.390, 0.678
59.400, 0.462
59.410, 0.294
59.420, 0.175
59.430, 0.099
59.440, 0.053
59.450, 0.028
59.460, 0.014
59.470, 0.008
59.480, 0.004
59.490, 0.003
59.500, 0.001
59.510, 0.001
59.520, 0.000
59.530, 0.000
59.540, 0.000
59.550, 0.000
59.560, 0.000
59.570, 0.000
59.580, 0.000
59.590, 0.000
59.600, 0.000
59.610, 0.000
59.620, 0.000
59.630, 0.000
59.640, 0.000
59.650, 0.000
59.660, 0.000
59.670, 0.000
59.680, 0.000
59.690, 0.000
59.700, 0.000
59.710, 0.001
59.720, 0.002
59.730, 0.005
59.740, 0.010
59.750, 0.021
59.760, 0.040
59.770, 0.070
59.780, 0.117
59.790, 0.186
59.800, 0.280
59.810, 0.407
59.820, 0.569
59.830, 0.772
59.840, 1.011
59.850, 1.273
59.860, 1.532
59.870, 1.748
59.880, 1.881
59.890, 1.903
59.900, 1.805
59.910, 1.609
59.920, 1.355
59.930, 1.089
59.940, 0.853
59.950, 0.675
59.960, 0.563
59.970, 0.516
59.980, 0.524
59.990, 0.575
60.000, 0.658
60.010, 0.760
60.020, 0.866
60.030, 0.958
60.040, 1.016
60.050, 1.026
60.060, 0.979
60.070, 0.881
60.080, 0.747
60.090, 0.601
60.100, 0.463
60.110, 0.349
60.120, 0.270
60.130, 0.229
60.140, 0.230
60.150, 0.280
60.160, 0.388
60.170, 0.567
60.180, 0.828
60.190, 1.178
60.200, 1.612
60.210, 2.108
60.220, 2.627
60.230, 3.113
60.240, 3.504
60.250, 3.740
60.260, 3.781
60.270, 3.619
60.280, 3.279
60.290, 2.817
60.300, 2.302
60.310, 1.806
60.320, 1.384
60.330, 1.073
60.340, 0.890
60.350, 0.840
60.360, 0.917
60.370, 1.110
60.380, 1.406
60.390, 1.793
60.400, 2.257
60.410, 2.782
60.420, 3.340
60.430, 3.887
60.440, 4.365
60.450, 4.703
60.460, 4.835
60.470, 4.719
60.480, 4.352
60.490, 3.779
60.500, 3.079
60.510, 2.351
60.520, 1.682
60.530, 1.137
60.540, 0.745
60.550, 0.512
60.560, 0.426
60.570, 0.469
60.580, 0.620
60.590, 0.856
60.600, 1.141
60.610, 1.431
60.620, 1.675
60.630, 1.824
60.640, 1.848
60.650, 1.742
60.660, 1.532
60.670, 1.263
60.680, 0.990
60.690, 0.766
60.700, 0.628
60.710, 0.597
60.720, 0.677
60.730, 0.856
60.740, 1.109
60.750, 1.403
60.760, 1.708
60.770, 2.001
60.780, 2.272
60.790, 2.517
60.800, 2.732
60.810, 2.906
60.820, 3.018
60.830, 3.048
60.840, 2.990
60.850, 2.863
60.860, 2.703
60.870, 2.551
60.880, 2.440
60.890, 2.378
60.900, 2.355
60.910, 2.352
60.920, 2.356
60.930, 2.375
60.940, 2.431
60.950, 2.559
60.960, 2.784
60.970, 3.102
60.980, 3.476
60.990, 3.835
61.000, 4.097
61.010, 4.192
61.020, 4.087
61.030, 3.793
61.040, 3.358
61.050, 2.851
61.060, 2.339
61.070, 1.869
61.080, 1.474
61.090, 1.165
61.100, 0.950
61.110, 0.831
61.120, 0.810
61.130, 0.882
61.140, 1.033
61.150, 1.232
61.160, 1.438
61.170, 1.604
61.180, 1.690
61.190, 1.676
61.200, 1.565
61.210, 1.385
61.220, 1.182
61.230, 1.005
61.240, 0.891
61.250, 0.863
61.260, 0.922
61.270, 1.047
61.280, 1.206
61.290, 1.363
61.300, 1.489
61.310, 1.566
61.320, 1.590
61.330, 1.566
61.340, 1.499
61.350, 1.395
61.360, 1.260
61.370, 1.101
61.380, 0.932
61.390, 0.769
61.400, 0.634
61.410, 0.543
61.420, 0.502
61.430, 0.510
61.440, 0.555
61.450, 0.619
61.460, 0.681
61.470, 0.727
61.480, 0.748
61.490, 0.743
61.500, 0.714
61.510, 0.668
61.520, 0.607
61.530, 0.536
61.540, 0.456
61.550, 0.373
61.560, 0.290
61.570, 0.216
61.580, 0.155
61.590, 0.110
61.600, 0.082
61.610, 0.071
61.620, 0.074
61.630, 0.090
61.640, 0.119
61.650, 0.159
61.660, 0.208
61.670, 0.263
61.680, 0.316
61.690, 0.359
61.700, 0.383
61.710, 0.381
61.720, 0.354
61.730, 0.305
61.740, 0.246
61.750, 0.185
61.760, 0.131
61.770, 0.091
61.780, 0.065
61.790, 0.053
61.800, 0.053
61.810, 0.063
61.820, 0.081
61.830, 0.104
61.840, 0.131
61.850, 0.158
61.860, 0.179
61.870, 0.191
61.880, 0.191
61.890, 0.177
61.900, 0.153
61.910, 0.123
61.920, 0.093
61.930, 0.067
61.940, 0.050
61.950, 0.042
61.960, 0.046
61.970, 0.061
61.980, 0.087
61.990, 0.122
62.000, 0.165
62.010, 0.209
62.020, 0.250
62.030, 0.283
62.040, 0.302
62.050, 0.305
62.060, 0.291
62.070, 0.262
62.080, 0.223
62.090, 0.179
62.100, 0.137
62.110, 0.101
62.120, 0.074
62.130, 0.059
62.140, 0.055
62.150, 0.063
62.160, 0.079
62.170, 0.103
62.180, 0.132
62.190, 0.163
62.200, 0.192
62.210, 0.217
62.220, 0.232
62.230, 0.236
62.240, 0.227
62.250, 0.207
62.260, 0.177
62.270, 0.144
62.280, 0.112
62.290, 0.085
62.300, 0.066
62.310, 0.054
62.320, 0.048
62.330, 0.047
62.340, 0.047
62.350, 0.048
62.360, 0.050
62.370, 0.053
62.380, 0.058
62.390, 0.067
62.400, 0.079
62.410, 0.095
62.420, 0.114
62.430, 0.135
62.440, 0.155
62.450, 0.172
62.460, 0.181
62.470, 0.181
62.480, 0.171
62.490, 0.152
62.500, 0.127
62.510, 0.101
62.520, 0.075
62.530, 0.053
62.540, 0.037
62.550, 0.026
62.560, 0.020
62.570, 0.019
62.580, 0.023
62.590, 0.031
62.600, 0.043
62.610, 0.055
62.620, 0.067
62.630, 0.076
62.640, 0.080
62.650, 0.077
62.660, 0.070
62.670, 0.058
62.680, 0.045
62.690, 0.032
62.700, 0.021
62.710, 0.013
62.720, 0.007
62.730, 0.004
62.740, 0.002
62.750, 0.001
62.760, 0.000
62.770, 0.000
62.780, 0.000
62.790, 0.000
62.800, 0.000
62.810, 0.000
62.820, 0.001
62.830, 0.002
62.840, 0.005
62.850, 0.011
62.860, 0.023
62.870, 0.042
62.880, 0.072
62.890, 0.115
62.900, 0.170
62.910, 0.234
62.920, 0.299
62.930, 0.356
62.940, 0.395
62.950, 0.411
62.960, 0.403
62.970, 0.381
62.980, 0.356
62.990, 0.343
63.000, 0.353
63.010, 0.390
63.020, 0.451
63.030, 0.526
63.040, 0.603
63.050, 0.671
63.060, 0.725
63.070, 0.762
63.080, 0.783
63.090, 0.787
63.100, 0.774
63.110, 0.744
63.120, 0.697
63.130, 0.642
63.140, 0.587
63.150, 0.547
63.160, 0.532
63.170, 0.550
63.180, 0.601
63.190, 0.678
63.200, 0.767
63.210, 0.849
63.220, 0.909
63.230, 0.936
63.240, 0.925
63.250, 0.877
63.260, 0.800
63.270, 0.702
63.280, 0.595
63.290, 0.488
63.300, 0.391
63.310, 0.311
63.320, 0.252
63.330, 0.216
63.340, 0.202
63.350, 0.207
63.360, 0.225
63.370, 0.250
63.380, 0.275
63.390, 0.294
63.400, 0.303
63.410, 0.298
63.420, 0.281
63.430, 0.252
63.440, 0.215
63.450, 0.175
63.460, 0.134
63.470, 0.097
63.480, 0.067
63.490, 0.043
63.500, 0.026
63.510, 0.014
63.520, 0.008
63.530, 0.004
63.540, 0.002
63.550, 0.001
63.560, 0.001
63.570, 0.001
63.580, 0.002
63.590, 0.005
63.600, 0.011
63.610, 0.022
63.620, 0.042
63.630, 0.072
63.640, 0.116
63.650, 0.175
63.660, 0.244
63.670, 0.319
63.680, 0.391
63.690, 0.453
63.700, 0.501
63.710, 0.532
63.720, 0.548
63.730, 0.553
63.740, 0.549
63.750, 0.537
63.760, 0.516
63.770, 0.486
63.780, 0.451
63.790, 0.414
63.800, 0.378
63.810, 0.349
63.820, 0.328
63.830, 0.314
63.840, 0.307
63.850, 0.304
63.860, 0.302
63.870, 0.301
63.880, 0.298
63.890, 0.294
63.900, 0.289
63.910, 0.283
63.920, 0.276
63.930, 0.266
63.940, 0.253
63.950, 0.236
63.960, 0.216
63.970, 0.193
63.980, 0.170
63.990, 0.147
64.000, 0.125
64.010, 0.103
64.020, 0.081
64.030, 0.062
64.040, 0.044
64.050, 0.030
64.060, 0.019
64.070, 0.011
64.080, 0.006
64.090, 0.003
64.100, 0.001
64.110, 0.001
64.120, 0.000
64.130, 0.000
64.140, 0.000
64.150, 0.000
64.160, 0.000
64.170, 0.000
64.180, 0.000
64.190, 0.000
64.200, 0.000
64.210, 0.000
64.220, 0.000
64.230, 0.000
64.240, 0.000
64.250, 0.000
64.260, 0.000
64.270, 0.000
64.280, 0.000
64.290, 0.000
64.300, 0.000
64.310, 0.000
64.320, 0.000
64.330, 0.000
64.340, 0.000
64.350, 0.000
64.360, 0.000
64.370, 0.000
64.380, 0.000
64.390, 0.000
64.400, 0.000
64.410, 0.000
64.420, 0.000
64.430, 0.000
64.440, 0.000
64.450, 0.000
64.460, 0.000
64.470, 0.000
64.480, 0.000
64.490, 0.000
64.500, 0.000
64.510, 0.000
64.520, 0.000
64.530, 0.000
64.540, 0.000
64.550, 0.000
64.560, 0.000
64.570, 0.000
64.580, 0.000
64.590, 0.000
64.600, 0.000
64.610, 0.001
64.620, 0.003
64.630, 0.007
64.640, 0.015
64.650, 0.031
64.660, 0.061
64.670, 0.112
64.680, 0.195
64.690, 0.323
64.700, 0.508
64.710, 0.760
64.720, 1.085
64.730, 1.474
64.740, 1.907
64.750, 2.345
64.760, 2.739
64.770, 3.037
64.780, 3.200
64.790, 3.206
64.800, 3.065
64.810, 2.812
64.820, 2.502
64.830, 2.195
64.840, 1.943
64.850, 1.779
64.860, 1.712
64.870, 1.728
64.880, 1.797
64.890, 1.890
64.900, 1.982
64.910, 2.066
64.920, 2.140
64.930, 2.207
64.940, 2.265
64.950, 2.301
64.960, 2.295
64.970, 2.229
64.980, 2.096
64.990, 1.903
65.000, 1.671
65.010, 1.431
65.020, 1.215
65.030, 1.046
65.040, 0.929
65.050, 0.859
65.060, 0.818
65.070, 0.784
65.080, 0.741
65.090, 0.682
65.100, 0.610
65.110, 0.534
65.120, 0.463
65.130, 0.405
65.140, 0.362
65.150, 0.331
65.160, 0.309
65.170, 0.290
65.180, 0.271
65.190, 0.253
65.200, 0.234
65.210, 0.214
65.220, 0.194
65.230, 0.171
65.240, 0.147
65.250, 0.120
65.260, 0.094
65.270, 0.069
65.280, 0.049
65.290, 0.034
65.300, 0.025
65.310, 0.021
65.320, 0.022
65.330, 0.028
65.340, 0.038
65.350, 0.053
65.360, 0.072
65.370, 0.096
65.380, 0.125
65.390, 0.158
65.400, 0.193
65.410, 0.227
65.420, 0.257
65.430, 0.281
65.440, 0.293
65.450, 0.293
65.460, 0.280
65.470, 0.257
65.480, 0.229
65.490, 0.200
65.500, 0.176
65.510, 0.160
65.520, 0.153
65.530, 0.155
65.540, 0.162
65.550, 0.172
65.560, 0.182
65.570, 0.191
65.580, 0.199
65.590, 0.205
65.600, 0.212
65.610, 0.218
65.620, 0.224
65.630, 0.225
65.640, 0.220
65.650, 0.207
65.660, 0.187
65.670, 0.163
65.680, 0.137
65.690, 0.115
65.700, 0.098
65.710, 0.086
65.720, 0.080
65.730, 0.078
65.740, 0.077
65.750, 0.077
65.760, 0.076
65.770, 0.079
65.780, 0.088
65.790, 0.110
65.800, 0.153
65.810, 0.225
65.820, 0.330
65.830, 0.469
65.840, 0.632
65.850, 0.802
65.860, 0.951
65.870, 1.053
65.880, 1.088
65.890, 1.049
65.900, 0.949
65.910, 0.814
65.920, 0.678
65.930, 0.574
65.940, 0.524
65.950, 0.537
65.960, 0.606
65.970, 0.712
65.980, 0.829
65.990, 0.930
66.000, 0.998
66.010, 1.024
66.020, 1.012
66.030, 0.972
66.040, 0.914
66.050, 0.845
66.060, 0.766
66.070, 0.678
66.080, 0.581
66.090, 0.482
66.100, 0.390
66.110, 0.316
66.120, 0.272
66.130, 0.260
66.140, 0.279
66.150, 0.321
66.160, 0.371
66.170, 0.415
66.180, 0.439
66.190, 0.436
66.200, 0.403
66.210, 0.347
66.220, 0.278
66.230, 0.208
66.240, 0.144
66.250, 0.093
66.260, 0.056
66.270, 0.032
66.280, 0.016
66.290, 0.008
66.300, 0.004
66.310, 0.002
66.320, 0.001
66.330, 0.000
66.340, 0.000
66.350, 0.000
66.360, 0.000
66.370, 0.000
66.380, 0.000
66.390, 0.000
66.400, 0.000
66.410, 0.001
66.420, 0.002
66.430, 0.004
66.440, 0.007
66.450, 0.011
66.460, 0.017
66.470, 0.026
66.480, 0.037
66.490, 0.050
66.500, 0.067
66.510, 0.090
66.520, 0.122
66.530, 0.170
66.540, 0.243
66.550, 0.354
66.560, 0.509
66.570, 0.712
66.580, 0.951
66.590, 1.204
66.600, 1.435
66.610, 1.608
66.620, 1.694
66.630, 1.682
66.640, 1.582
66.650, 1.416
66.660, 1.215
66.670, 1.008
66.680, 0.814
66.690, 0.646
66.700, 0.510
66.710, 0.410
66.720, 0.349
66.730, 0.330
66.740, 0.356
66.750, 0.425
66.760, 0.531
66.770, 0.661
66.780, 0.794
66.790, 0.908
66.800, 0.982
66.810, 1.003
66.820, 0.970
66.830, 0.894
66.840, 0.793
66.850, 0.690
66.860, 0.602
66.870, 0.539
66.880, 0.506
66.890, 0.500
66.900, 0.515
66.910, 0.540
66.920, 0.567
66.930, 0.584
66.940, 0.585
66.950, 0.568
66.960, 0.532
66.970, 0.484
66.980, 0.432
66.990, 0.388
67.000, 0.363
67.010, 0.364
67.020, 0.397
67.030, 0.463
67.040, 0.559
67.050, 0.679
67.060, 0.819
67.070, 0.973
67.080, 1.134
67.090, 1.294
67.100, 1.442
67.110, 1.569
67.120, 1.667
67.130, 1.733
67.140, 1.768
67.150, 1.773
67.160, 1.745
67.170, 1.680
67.180, 1.573
67.190, 1.425
67.200, 1.248
67.210, 1.060
67.220, 0.882
67.230, 0.735
67.240, 0.629
67.250, 0.569
67.260, 0.551
67.270, 0.566
67.280, 0.606
67.290, 0.663
67.300, 0.734
67.310, 0.818
67.320, 0.919
67.330, 1.036
67.340, 1.164
67.350, 1.289
67.360, 1.389
67.370, 1.436
67.380, 1.413
67.390, 1.314
67.400, 1.150
67.410, 0.946
67.420, 0.734
67.430, 0.544
67.440, 0.400
67.450, 0.314
67.460, 0.291
67.470, 0.330
67.480, 0.426
67.490, 0.575
67.500, 0.767
67.510, 0.988
67.520, 1.220
67.530, 1.436
67.540, 1.609
67.550, 1.710
67.560, 1.719
67.570, 1.633
67.580, 1.464
67.590, 1.240
67.600, 0.997
67.610, 0.772
67.620, 0.593
67.630, 0.476
67.640, 0.424
67.650, 0.430
67.660, 0.478
67.670, 0.552
67.680, 0.636
67.690, 0.718
67.700, 0.789
67.710, 0.842
67.720, 0.871
67.730, 0.873
67.740, 0.844
67.750, 0.784
67.760, 0.695
67.770, 0.588
67.780, 0.473
67.790, 0.364
67.800, 0.272
67.810, 0.205
67.820, 0.165
67.830, 0.148
67.840, 0.150
67.850, 0.162
67.860, 0.175
67.870, 0.184
67.880, 0.184
67.890, 0.174
67.900, 0.155
67.910, 0.130
67.920, 0.103
67.930, 0.078
67.940, 0.056
67.950, 0.039
67.960, 0.027
67.970, 0.019
67.980, 0.015
67.990, 0.014
68.000, 0.014
68.010, 0.016
68.020, 0.019
68.030, 0.025
68.040, 0.035
68.050, 0.049
68.060, 0.071
68.070, 0.099
68.080, 0.133
68.090, 0.169
68.100, 0.203
68.110, 0.230
68.120, 0.248
68.130, 0.255
68.140, 0.253
68.150, 0.244
68.160, 0.235
68.170, 0.231
68.180, 0.240
68.190, 0.267
68.200, 0.321
68.210, 0.405
68.220, 0.521
68.230, 0.664
68.240, 0.824
68.250, 0.984
68.260, 1.128
68.270, 1.246
68.280, 1.334
68.290, 1.399
68.300, 1.450
68.310, 1.497
68.320, 1.541
68.330, 1.574
68.340, 1.589
68.350, 1.579
68.360, 1.546
68.370, 1.504
68.380, 1.473
68.390, 1.473
68.400, 1.516
68.410, 1.597
68.420, 1.695
68.430, 1.778
68.440, 1.815
68.450, 1.784
68.460, 1.684
68.470, 1.534
68.480, 1.362
68.490, 1.204
68.500, 1.082
68.510, 1.006
68.520, 0.970
68.530, 0.956
68.540, 0.947
68.550, 0.929
68.560, 0.898
68.570, 0.858
68.580, 0.824
68.590, 0.805
68.600, 0.809
68.610, 0.834
68.620, 0.870
68.630, 0.901
68.640, 0.913
68.650, 0.894
68.660, 0.842
68.670, 0.761
68.680, 0.661
68.690, 0.554
68.700, 0.452
68.710, 0.365
68.720, 0.300
68.730, 0.260
68.740, 0.248
68.750, 0.266
68.760, 0.319
68.770, 0.418
68.780, 0.573
68.790, 0.795
68.800, 1.091
68.810, 1.455
68.820, 1.865
68.830, 2.286
68.840, 2.668
68.850, 2.959
68.860, 3.121
68.870, 3.139
68.880, 3.029
68.890, 2.836
68.900, 2.621
68.910, 2.439
68.920, 2.326
68.930, 2.288
68.940, 2.305
68.950, 2.339
68.960, 2.359
68.970, 2.346
68.980, 2.300
68.990, 2.239
69.000, 2.181
69.010, 2.142
69.020, 2.122
69.030, 2.110
69.040, 2.087
69.050, 2.033
69.060, 1.939
69.070, 1.808
69.080, 1.655
69.090, 1.503
69.100, 1.376
69.110, 1.290
69.120, 1.246
69.130, 1.234
69.140, 1.235
69.150, 1.228
69.160, 1.199
69.170, 1.144
69.180, 1.068
69.190, 0.981
69.200, 0.894
69.210, 0.814
69.220, 0.745
69.230, 0.690
69.240, 0.648
69.250, 0.623
69.260, 0.618
69.270, 0.633
69.280, 0.663
69.290, 0.700
69.300, 0.730
69.310, 0.741
69.320, 0.723
69.330, 0.676
69.340, 0.607
69.350, 0.529
69.360, 0.454
69.370, 0.395
69.380, 0.357
69.390, 0.342
69.400, 0.347
69.410, 0.368
69.420, 0.400
69.430, 0.440
69.440, 0.482
69.450, 0.523
69.460, 0.558
69.470, 0.584
69.480, 0.604
69.490, 0.622
69.500, 0.650
69.510, 0.704
69.520, 0.803
69.530, 0.966
69.540, 1.205
69.550, 1.516
69.560, 1.883
69.570, 2.272
69.580, 2.639
69.590, 2.941
69.600, 3.145
69.610, 3.232
69.620, 3.200
69.630, 3.061
69.640, 2.833
69.650, 2.537
69.660, 2.196
69.670, 1.835
69.680, 1.478
69.690, 1.152
69.700, 0.879
69.710, 0.681
69.720, 0.570
69.730, 0.549
69.740, 0.612
69.750, 0.742
69.760, 0.917
69.770, 1.108
69.780, 1.287
69.790, 1.429
69.800, 1.519
69.810, 1.547
69.820, 1.515
69.830, 1.431
69.840, 1.305
69.850, 1.150
69.860, 0.978
69.870, 0.800
69.880, 0.627
69.890, 0.470
69.900, 0.335
69.910, 0.226
69.920, 0.144
69.930, 0.086
69.940, 0.049
69.950, 0.026
69.960, 0.013
69.970, 0.006
69.980, 0.003
69.990, 0.001
70.000, 0.000
70.010, 0.000
70.020, 0.000
70.030, 0.000
70.040, 0.000
70.050, 0.000
70.060, 0.000
70.070, 0.000
70.080, 0.000
70.090, 0.000
70.100, 0.000
70.110, 0.000
70.120, 0.000
70.130, 0.000
70.140, 0.000
70.150, 0.000
70.160, 0.001
70.170, 0.003
70.180, 0.005
70.190, 0.011
70.200, 0.020
70.210, 0.035
70.220, 0.056
70.230, 0.084
70.240, 0.119
70.250, 0.157
70.260, 0.196
70.270, 0.231
70.280, 0.260
70.290, 0.282
70.300, 0.301
70.310, 0.321
70.320, 0.346
70.330, 0.376
70.340, 0.410
70.350, 0.444
70.360, 0.472
70.370, 0.488
70.380, 0.490
70.390, 0.480
70.400, 0.462
70.410, 0.442
70.420, 0.426
70.430, 0.416
70.440, 0.413
70.450, 0.418
70.460, 0.434
70.470, 0.468
70.480, 0.532
70.490, 0.641
70.500, 0.804
70.510, 1.023
70.520, 1.285
70.530, 1.562
70.540, 1.816
70.550, 2.003
70.560, 2.091
70.570, 2.063
70.580, 1.925
70.590, 1.702
70.600, 1.429
70.610, 1.148
70.620, 0.892
70.630, 0.683
70.640, 0.533
70.650, 0.442
70.660, 0.407
70.670, 0.420
70.680, 0.472
70.690, 0.558
70.700, 0.667
70.710, 0.792
70.720, 0.918
70.730, 1.032
70.740, 1.119
70.750, 1.169
70.760, 1.174
70.770, 1.137
70.780, 1.068
70.790, 0.981
70.800, 0.892
70.810, 0.817
70.820, 0.764
70.830, 0.737
70.840, 0.737
70.850, 0.759
70.860, 0.801
70.870, 0.854
70.880, 0.907
70.890, 0.948
70.900, 0.962
70.910, 0.938
70.920, 0.875
70.930, 0.777
70.940, 0.656
70.950, 0.529
70.960, 0.411
70.970, 0.314
70.980, 0.243
70.990, 0.201
71.000, 0.185
71.010, 0.191
71.020, 0.211
71.030, 0.239
71.040, 0.271
71.050, 0.303
71.060, 0.333
71.070, 0.360
71.080, 0.381
71.090, 0.394
71.100, 0.396
71.110, 0.382
71.120, 0.353
71.130, 0.310
71.140, 0.259
71.150, 0.205
71.160, 0.155
71.170, 0.111
71.180, 0.077
71.190, 0.051
71.200, 0.033
71.210, 0.020
71.220, 0.012
71.230, 0.007
71.240, 0.004
71.250, 0.002
71.260, 0.001
71.270, 0.000
71.280, 0.000
71.290, 0.000
71.300, 0.000
71.310, 0.000
71.320, 0.000
71.330, 0.000
71.340, 0.000
71.350, 0.000
71.360, 0.000
71.370, 0.000
71.380, 0.000
71.390, 0.001
71.400, 0.002
71.410, 0.003
71.420, 0.006
71.430, 0.011
71.440, 0.020
71.450, 0.033
71.460, 0.051
71.470, 0.076
71.480, 0.106
71.490, 0.140
71.500, 0.175
71.510, 0.207
71.520, 0.233
71.530, 0.253
71.540, 0.264
71.550, 0.268
71.560, 0.267
71.570, 0.260
71.580, 0.250
71.590, 0.235
71.600, 0.217
71.610, 0.196
71.620, 0.174
71.630, 0.151
71.640, 0.128
71.650, 0.109
71.660, 0.094
71.670, 0.086
71.680, 0.086
71.690, 0.094
71.700, 0.113
71.710, 0.143
71.720, 0.189
71.730, 0.254
71.740, 0.344
71.750, 0.462
71.760, 0.606
71.770, 0.766
71.780, 0.925
71.790, 1.060
71.800, 1.147
71.810, 1.169
71.820, 1.120
71.830, 1.010
71.840, 0.858
71.850, 0.693
71.860, 0.543
71.870, 0.432
71.880, 0.375
71.890, 0.383
71.900, 0.453
71.910, 0.576
71.920, 0.735
71.930, 0.907
71.940, 1.066
71.950, 1.188
71.960, 1.260
71.970, 1.278
71.980, 1.247
71.990, 1.180
72.000, 1.088
72.010, 0.980
72.020, 0.862
72.030, 0.738
72.040, 0.612
72.050, 0.493
72.060, 0.389
72.070, 0.308
72.080, 0.258
72.090, 0.243
72.100, 0.260
72.110, 0.307
72.120, 0.375
72.130, 0.453
72.140, 0.526
72.150, 0.581
72.160, 0.607
72.170, 0.601
72.180, 0.564
72.190, 0.508
72.200, 0.450
72.210, 0.409
72.220, 0.402
72.230, 0.443
72.240, 0.538
72.250, 0.681
72.260, 0.857
72.270, 1.038
72.280, 1.192
72.290, 1.287
72.300, 1.303
72.310, 1.236
72.320, 1.099
72.330, 0.918
72.340, 0.725
72.350, 0.546
72.360, 0.399
72.370, 0.290
72.380, 0.216
72.390, 0.171
72.400, 0.147
72.410, 0.139
72.420, 0.146
72.430, 0.171
72.440, 0.216
72.450, 0.283
72.460, 0.370
72.470, 0.467
72.480, 0.560
72.490, 0.634
72.500, 0.673
72.510, 0.669
72.520, 0.623
72.530, 0.546
72.540, 0.452
72.550, 0.358
72.560, 0.278
72.570, 0.220
72.580, 0.187
72.590, 0.176
72.600, 0.180
72.610, 0.191
72.620, 0.202
72.630, 0.209
72.640, 0.206
72.650, 0.195
72.660, 0.176
72.670, 0.153
72.680, 0.130
72.690, 0.110
72.700, 0.097
72.710, 0.092
72.720, 0.100
72.730, 0.121
72.740, 0.161
72.750, 0.221
72.760, 0.306
72.770, 0.413
72.780, 0.540
72.790, 0.676
72.800, 0.807
72.810, 0.918
72.820, 0.995
72.830, 1.031
72.840, 1.032
72.850, 1.016
72.860, 1.007
72.870, 1.037
72.880, 1.130
72.890, 1.299
72.900, 1.538
72.910, 1.823
72.920, 2.113
72.930, 2.363
72.940, 2.530
72.950, 2.585
72.960, 2.521
72.970, 2.350
72.980, 2.102
72.990, 1.814
73.000, 1.523
73.010, 1.258
73.020, 1.033
73.030, 0.853
73.040, 0.713
73.050, 0.608
73.060, 0.536
73.070, 0.496
73.080, 0.494
73.090, 0.535
73.100, 0.619
73.110, 0.741
73.120, 0.886
73.130, 1.035
73.140, 1.165
73.150, 1.255
73.160, 1.293
73.170, 1.275
73.180, 1.209
73.190, 1.111
73.200, 0.998
73.210, 0.888
73.220, 0.793
73.230, 0.714
73.240, 0.651
73.250, 0.595
73.260, 0.540
73.270, 0.481
73.280, 0.419
73.290, 0.356
73.300, 0.299
73.310, 0.254
73.320, 0.227
73.330, 0.219
73.340, 0.229
73.350, 0.251
73.360, 0.279
73.370, 0.307
73.380, 0.331
73.390, 0.350
73.400, 0.367
73.410, 0.385
73.420, 0.407
73.430, 0.433
73.440, 0.461
73.450, 0.485
73.460, 0.498
73.470, 0.495
73.480, 0.473
73.490, 0.436
73.500, 0.391
73.510, 0.350
73.520, 0.325
73.530, 0.332
73.540, 0.383
73.550, 0.486
73.560, 0.643
73.570, 0.847
73.580, 1.081
73.590, 1.318
73.600, 1.529
73.610, 1.688
73.620, 1.781
73.630, 1.807
73.640, 1.776
73.650, 1.703
73.660, 1.601
73.670, 1.479
73.680, 1.338
73.690, 1.177
73.700, 1.002
73.710, 0.819
73.720, 0.643
73.730, 0.489
73.740, 0.370
73.750, 0.296
73.760, 0.270
73.770, 0.292
73.780, 0.355
73.790, 0.447
73.800, 0.554
73.810, 0.660
73.820, 0.748
73.830, 0.807
73.840, 0.834
73.850, 0.831
73.860, 0.805
73.870, 0.764
73.880, 0.715
73.890, 0.659
73.900, 0.600
73.910, 0.535
73.920, 0.467
73.930, 0.398
73.940, 0.332
73.950, 0.272
73.960, 0.219
73.970, 0.175
73.980, 0.139
73.990, 0.110
74.000, 0.088
74.010, 0.072
74.020, 0.060
74.030, 0.050
74.040, 0.043
74.050, 0.036
74.060, 0.030
74.070, 0.025
74.080, 0.022
74.090, 0.020
74.100, 0.021
74.110, 0.025
74.120, 0.031
74.130, 0.039
74.140, 0.047
74.150, 0.054
74.160, 0.059
74.170, 0.061
74.180, 0.060
74.190, 0.057
74.200, 0.052
74.210, 0.048
74.220, 0.044
74.230, 0.042
74.240, 0.043
74.250, 0.045
74.260, 0.050
74.270, 0.056
74.280, 0.063
74.290, 0.070
74.300, 0.077
74.310, 0.082
74.320, 0.084
74.330, 0.083
74.340, 0.080
74.350, 0.074
74.360, 0.068
74.370, 0.061
74.380, 0.054
74.390, 0.048
74.400, 0.042
74.410, 0.036
74.420, 0.031
74.430, 0.026
74.440, 0.021
74.450, 0.019
74.460, 0.017
74.470, 0.018
74.480, 0.021
74.490, 0.026
74.500, 0.033
74.510, 0.042
74.520, 0.054
74.530, 0.069
74.540, 0.087
74.550, 0.110
74.560, 0.135
74.570, 0.162
74.580, 0.189
74.590, 0.212
74.600, 0.230
74.610, 0.245
74.620, 0.261
74.630, 0.283
74.640, 0.319
74.650, 0.375
74.660, 0.455
74.670, 0.560
74.680, 0.687
74.690, 0.830
74.700, 0.985
74.710, 1.145
74.720, 1.308
74.730, 1.474
74.740, 1.646
74.750, 1.831
74.760, 2.034
74.770, 2.259
74.780, 2.501
74.790, 2.746
74.800, 2.969
74.810, 3.139
74.820, 3.226
74.830, 3.205
74.840, 3.066
74.850, 2.818
74.860, 2.486
74.870, 2.111
74.880, 1.737
74.890, 1.402
74.900, 1.133
74.910, 0.942
74.920, 0.828
74.930, 0.781
74.940, 0.787
74.950, 0.834
74.960, 0.915
74.970, 1.025
74.980, 1.164
74.990, 1.331
75.000, 1.520
75.010, 1.721
75.020, 1.917
75.030, 2.086
75.040, 2.204
75.050, 2.253
75.060, 2.222
75.070, 2.113
75.080, 1.940
75.090, 1.729
75.100, 1.509
75.110, 1.309
75.120, 1.144
75.130, 1.021
75.140, 0.936
75.150, 0.879
75.160, 0.839
75.170, 0.806
75.180, 0.775
75.190, 0.743
75.200, 0.711
75.210, 0.678
75.220, 0.647
75.230, 0.619
75.240, 0.596
75.250, 0.580
75.260, 0.568
75.270, 0.560
75.280, 0.551
75.290, 0.538
75.300, 0.520
75.310, 0.499
75.320, 0.477
75.330, 0.457
75.340, 0.442
75.350, 0.432
75.360, 0.427
75.370, 0.426
75.380, 0.429
75.390, 0.441
75.400, 0.469
75.410, 0.521
75.420, 0.608
75.430, 0.740
75.440, 0.923
75.450, 1.151
75.460, 1.407
75.470, 1.664
75.480, 1.883
75.490, 2.025
75.500, 2.061
75.510, 1.981
75.520, 1.797
75.530, 1.540
75.540, 1.253
75.550, 0.979
75.560, 0.749
75.570, 0.580
75.580, 0.473
75.590, 0.418
75.600, 0.396
75.610, 0.392
75.620, 0.395
75.630, 0.402
75.640, 0.418
75.650, 0.449
75.660, 0.504
75.670, 0.586
75.680, 0.691
75.690, 0.805
75.700, 0.908
75.710, 0.979
75.720, 1.000
75.730, 0.965
75.740, 0.878
75.750, 0.755
75.760, 0.615
75.770, 0.480
75.780, 0.367
75.790, 0.283
75.800, 0.230
75.810, 0.201
75.820, 0.188
75.830, 0.182
75.840, 0.173
75.850, 0.160
75.860, 0.140
75.870, 0.115
75.880, 0.090
75.890, 0.065
75.900, 0.044
75.910, 0.028
75.920, 0.017
75.930, 0.010
75.940, 0.005
75.950, 0.003
75.960, 0.001
75.970, 0.001
75.980, 0.000
75.990, 0.000
76.000, 0.000
76.010, 0.000
76.020, 0.000
76.030, 0.000
76.040, 0.000
76.050, 0.000
76.060, 0.000
76.070, 0.000
76.080, 0.000
76.090, 0.000
76.100, 0.000
76.110, 0.000
76.120, 0.000
76.130, 0.000
76.140, 0.000
76.150, 0.000
76.160, 0.000
76.170, 0.000
76.180, 0.001
76.190, 0.002
76.200, 0.005
76.210, 0.010
76.220, 0.018
76.230, 0.030
76.240, 0.048
76.250, 0.071
76.260, 0.100
76.270, 0.132
76.280, 0.164
76.290, 0.194
76.300, 0.220
76.310, 0.244
76.320, 0.267
76.330, 0.295
76.340, 0.330
76.350, 0.374
76.360, 0.421
76.370, 0.464
76.380, 0.494
76.390, 0.503
76.400, 0.486
76.410, 0.445
76.420, 0.387
76.430, 0.322
76.440, 0.261
76.450, 0.216
76.460, 0.196
76.470, 0.213
76.480, 0.275
76.490, 0.393
76.500, 0.573
76.510, 0.815
76.520, 1.108
76.530, 1.426
76.540, 1.731
76.550, 1.980
76.560, 2.133
76.570, 2.164
76.580, 2.072
76.590, 1.878
76.600, 1.619
76.610, 1.341
76.620, 1.086
76.630, 0.883
76.640, 0.750
76.650, 0.687
76.660, 0.684
76.670, 0.720
76.680, 0.772
76.690, 0.819
76.700, 0.849
76.710, 0.858
76.720, 0.853
76.730, 0.850
76.740, 0.863
76.750, 0.898
76.760, 0.953
76.770, 1.010
76.780, 1.049
76.790, 1.050
76.800, 1.002
76.810, 0.909
76.820, 0.783
76.830, 0.650
76.840, 0.532
76.850, 0.449
76.860, 0.409
76.870, 0.415
76.880, 0.455
76.890, 0.514
76.900, 0.573
76.910, 0.617
76.920, 0.631
76.930, 0.612
76.940, 0.562
76.950, 0.489
76.960, 0.405
76.970, 0.321
76.980, 0.247
76.990, 0.186
77.000, 0.140
77.010, 0.108
77.020, 0.087
77.030, 0.076
77.040, 0.078
77.050, 0.095
77.060, 0.132
77.070, 0.195
77.080, 0.291
77.090, 0.419
77.100, 0.576
77.110, 0.746
77.120, 0.909
77.130, 1.040
77.140, 1.116
77.150, 1.123
77.160, 1.061
77.170, 0.940
77.180, 0.783
77.190, 0.614
77.200, 0.454
77.210, 0.319
77.220, 0.215
77.230, 0.141
77.240, 0.091
77.250, 0.062
77.260, 0.046
77.270, 0.041
77.280, 0.046
77.290, 0.062
77.300, 0.091
77.310, 0.135
77.320, 0.194
77.330, 0.265
77.340, 0.342
77.350, 0.413
77.360, 0.469
77.370, 0.498
77.380, 0.495
77.390, 0.462
77.400, 0.405
77.410, 0.336
77.420, 0.268
77.430, 0.212
77.440, 0.177
77.450, 0.167
77.460, 0.182
77.470, 0.217
77.480, 0.267
77.490, 0.322
77.500, 0.373
77.510, 0.413
77.520, 0.436
77.530, 0.440
77.540, 0.427
77.550, 0.401
77.560, 0.368
77.570, 0.334
77.580, 0.308
77.590, 0.295
77.600, 0.303
77.610, 0.334
77.620, 0.388
77.630, 0.455
77.640, 0.526
77.650, 0.586
77.660, 0.623
77.670, 0.629
77.680, 0.605
77.690, 0.557
77.700, 0.496
77.710, 0.433
77.720, 0.378
77.730, 0.333
77.740, 0.299
77.750, 0.272
77.760, 0.250
77.770, 0.230
77.780, 0.212
77.790, 0.196
77.800, 0.186
77.810, 0.185
77.820, 0.197
77.830, 0.226
77.840, 0.272
77.850, 0.332
77.860, 0.401
77.870, 0.470
77.880, 0.525
77.890, 0.558
77.900, 0.560
77.910, 0.530
77.920, 0.474
77.930, 0.398
77.940, 0.315
77.950, 0.234
77.960, 0.164
77.970, 0.108
77.980, 0.067
77.990, 0.040
78.000, 0.023
78.010, 0.014
78.020, 0.011
78.030, 0.012
78.040, 0.017
78.050, 0.026
78.060, 0.037
78.070, 0.052
78.080, 0.069
78.090, 0.087
78.100, 0.104
78.110, 0.120
78.120, 0.133
78.130, 0.141
78.140, 0.146
78.150, 0.149
78.160, 0.153
78.170, 0.160
78.180, 0.172
78.190, 0.190
78.200, 0.213
78.210, 0.240
78.220, 0.268
78.230, 0.295
78.240, 0.321
78.250, 0.343
78.260, 0.360
78.270, 0.369
78.280, 0.366
78.290, 0.351
78.300, 0.321
78.310, 0.280
78.320, 0.230
78.330, 0.180
78.340, 0.133
78.350, 0.095
78.360, 0.069
78.370, 0.057
78.380, 0.060
78.390, 0.079
78.400, 0.117
78.410, 0.173
78.420, 0.246
78.430, 0.331
78.440, 0.421
78.450, 0.505
78.460, 0.574
78.470, 0.619
78.480, 0.637
78.490, 0.630
78.500, 0.604
78.510, 0.571
78.520, 0.540
78.530, 0.523
78.540, 0.525
78.550, 0.552
78.560, 0.603
78.570, 0.678
78.580, 0.773
78.590, 0.883
78.600, 1.003
78.610, 1.130
78.620, 1.258
78.630, 1.384
78.640, 1.501
78.650, 1.602
78.660, 1.679
78.670, 1.731
78.680, 1.759
78.690, 1.772
78.700, 1.783
78.710, 1.806
78.720, 1.850
78.730, 1.914
78.740, 1.984
78.750, 2.041
78.760, 2.061
78.770, 2.027
78.780, 1.933
78.790, 1.788
78.800, 1.608
78.810, 1.418
78.820, 1.240
78.830, 1.092
78.840, 0.984
78.850, 0.915
78.860, 0.883
78.870, 0.876
78.880, 0.885
78.890, 0.900
78.900, 0.916
78.910, 0.931
78.920, 0.948
78.930, 0.972
78.940, 1.008
78.950, 1.059
78.960, 1.120
78.970, 1.186
78.980, 1.242
78.990, 1.278
79.000, 1.283
79.010, 1.255
79.020, 1.196
79.030, 1.114
79.040, 1.018
79.050, 0.916
79.060, 0.814
79.070, 0.715
79.080, 0.620
79.090, 0.530
79.100, 0.444
79.110, 0.366
79.120, 0.297
79.130, 0.241
79.140, 0.199
79.150, 0.172
79.160, 0.160
79.170, 0.162
79.180, 0.175
79.190, 0.198
79.200, 0.228
79.210, 0.265
79.220, 0.308
79.230, 0.356
79.240, 0.408
79.250, 0.464
79.260, 0.524
79.270, 0.589
79.280, 0.660
79.290, 0.739
79.300, 0.824
79.310, 0.915
79.320, 1.006
79.330, 1.091
79.340, 1.160
79.350, 1.206
79.360, 1.224
79.370, 1.210
79.380, 1.166
79.390, 1.094
79.400, 1.000
79.410, 0.893
79.420, 0.782
79.430, 0.676
79.440, 0.585
79.450, 0.516
79.460, 0.471
79.470, 0.450
79.480, 0.447
79.490, 0.455
79.500, 0.468
79.510, 0.483
79.520, 0.499
79.530, 0.518
79.540, 0.540
79.550, 0.568
79.560, 0.597
79.570, 0.625
79.580, 0.647
79.590, 0.658
79.600, 0.657
79.610, 0.643
79.620, 0.618
79.630, 0.584
79.640, 0.545
79.650, 0.506
79.660, 0.472
79.670, 0.448
79.680, 0.439
79.690, 0.447
79.700, 0.472
79.710, 0.508
79.720, 0.546
79.730, 0.578
79.740, 0.593
79.750, 0.588
79.760, 0.562
79.770, 0.518
79.780, 0.462
79.790, 0.400
79.800, 0.338
79.810, 0.280
79.820, 0.230
79.830, 0.192
79.840, 0.170
79.850, 0.167
79.860, 0.187
79.870, 0.231
79.880, 0.299
79.890, 0.385
79.900, 0.484
79.910, 0.587
79.920, 0.689
79.930, 0.785
79.940, 0.871
79.950, 0.947
79.960, 1.012
79.970, 1.062
79.980, 1.093
79.990, 1.099
80.000, 1.078
80.010, 1.031
80.020, 0.965
80.030, 0.892
80.040, 0.824
80.050, 0.775
80.060, 0.755
80.070, 0.771
80.080, 0.826
80.090, 0.921
80.100, 1.052
80.110, 1.211
80.120, 1.386
80.130, 1.556
80.140, 1.701
80.150, 1.798
80.160, 1.832
80.170, 1.797
80.180, 1.698
80.190, 1.553
80.200, 1.381
80.210, 1.206
80.220, 1.047
80.230, 0.920
80.240, 0.837
80.250, 0.809
80.260, 0.843
80.270, 0.944
80.280, 1.113
80.290, 1.341
80.300, 1.614
80.310, 1.904
80.320, 2.180
80.330, 2.411
80.340, 2.568
80.350, 2.635
80.360, 2.608
80.370, 2.496
80.380, 2.318
80.390, 2.100
80.400, 1.866
80.410, 1.637
80.420, 1.431
80.430, 1.256
80.440, 1.119
80.450, 1.024
80.460, 0.972
80.470, 0.962
80.480, 0.994
80.490, 1.059
80.500, 1.147
80.510, 1.246
80.520, 1.341
80.530, 1.420
80.540, 1.476
80.550, 1.505
80.560, 1.505
80.570, 1.478
80.580, 1.426
80.590, 1.351
80.600, 1.255
80.610, 1.144
80.620, 1.024
80.630, 0.902
80.640, 0.786
80.650, 0.683
80.660, 0.597
80.670, 0.531
80.680, 0.487
80.690, 0.464
80.700, 0.461
80.710, 0.474
80.720, 0.499
80.730, 0.527
80.740, 0.552
80.750, 0.564
80.760, 0.556
80.770, 0.527
80.780, 0.476
80.790, 0.411
80.800, 0.339
80.810, 0.270
80.820, 0.210
80.830, 0.165
80.840, 0.136
80.850, 0.121
80.860, 0.116
80.870, 0.118
80.880, 0.122
80.890, 0.129
80.900, 0.140
80.910, 0.161
80.920, 0.201
80.930, 0.270
80.940, 0.376
80.950, 0.523
80.960, 0.706
80.970, 0.910
80.980, 1.110
80.990, 1.278
81.000, 1.386
81.010, 1.416
81.020, 1.365
81.030, 1.248
81.040, 1.089
81.050, 0.918
81.060, 0.762
81.070, 0.636
81.080, 0.545
81.090, 0.484
81.100, 0.445
81.110, 0.418
81.120, 0.398
81.130, 0.385
81.140, 0.381
81.150, 0.389
81.160, 0.413
81.170, 0.452
81.180, 0.505
81.190, 0.570
81.200, 0.642
81.210, 0.716
81.220, 0.784
81.230, 0.836
81.240, 0.862
81.250, 0.858
81.260, 0.820
81.270, 0.754
81.280, 0.670
81.290, 0.580
81.300, 0.496
81.310, 0.424
81.320, 0.368
81.330, 0.325
81.340, 0.292
81.350, 0.264
81.360, 0.240
81.370, 0.220
81.380, 0.204
81.390, 0.194
81.400, 0.189
81.410, 0.189
81.420, 0.190
81.430, 0.191
81.440, 0.190
81.450, 0.189
81.460, 0.190
81.470, 0.199
81.480, 0.219
81.490, 0.256
81.500, 0.309
81.510, 0.375
81.520, 0.447
81.530, 0.513
81.540, 0.562
81.550, 0.584
81.560, 0.576
81.570, 0.539
81.580, 0.482
81.590, 0.416
81.600, 0.351
81.610, 0.295
81.620, 0.252
81.630, 0.220
81.640, 0.196
81.650, 0.177
81.660, 0.159
81.670, 0.142
81.680, 0.125
81.690, 0.110
81.700, 0.099
81.710, 0.094
81.720, 0.098
81.730, 0.111
81.740, 0.135
81.750, 0.170
81.760, 0.212
81.770, 0.257
81.780, 0.302
81.790, 0.339
81.800, 0.366
81.810, 0.379
81.820, 0.380
81.830, 0.372
81.840, 0.359
81.850, 0.345
81.860, 0.333
81.870, 0.322
81.880, 0.310
81.890, 0.295
81.900, 0.275
81.910, 0.248
81.920, 0.214
81.930, 0.178
81.940, 0.141
81.950, 0.107
81.960, 0.079
81.970, 0.056
81.980, 0.040
81.990, 0.029
82.000, 0.023
82.010, 0.023
82.020, 0.026
82.030, 0.032
82.040, 0.041
82.050, 0.053
82.060, 0.065
82.070, 0.079
82.080, 0.095
82.090, 0.115
82.100, 0.141
82.110, 0.177
82.120, 0.227
82.130, 0.292
82.140, 0.371
82.150, 0.462
82.160, 0.555
82.170, 0.639
82.180, 0.703
82.190, 0.736
82.200, 0.732
82.210, 0.691
82.220, 0.619
82.230, 0.526
82.240, 0.425
82.250, 0.329
82.260, 0.246
82.270, 0.183
82.280, 0.141
82.290, 0.120
82.300, 0.117
82.310, 0.125
82.320, 0.141
82.330, 0.159
82.340, 0.177
82.350, 0.191
82.360, 0.204
82.370, 0.216
82.380, 0.231
82.390, 0.251
82.400, 0.277
82.410, 0.306
82.420, 0.335
82.430, 0.358
82.440, 0.368
82.450, 0.364
82.460, 0.345
82.470, 0.316
82.480, 0.284
82.490, 0.261
82.500, 0.257
82.510, 0.286
82.520, 0.354
82.530, 0.464
82.540, 0.612
82.550, 0.785
82.560, 0.959
82.570, 1.108
82.580, 1.206
82.590, 1.236
82.600, 1.193
82.610, 1.087
82.620, 0.940
82.630, 0.781
82.640, 0.641
82.650, 0.543
82.660, 0.503
82.670, 0.527
82.680, 0.609
82.690, 0.733
82.700, 0.875
82.710, 1.008
82.720, 1.106
82.730, 1.148
82.740, 1.129
82.750, 1.056
82.760, 0.947
82.770, 0.829
82.780, 0.726
82.790, 0.654
82.800, 0.619
82.810, 0.616
82.820, 0.629
82.830, 0.643
82.840, 0.641
82.850, 0.616
82.860, 0.566
82.870, 0.499
82.880, 0.425
82.890, 0.357
82.900, 0.307
82.910, 0.283
82.920, 0.288
82.930, 0.321
82.940, 0.376
82.950, 0.442
82.960, 0.504
82.970, 0.550
82.980, 0.569
82.990, 0.555
83.000, 0.509
83.010, 0.440
83.020, 0.357
83.030, 0.272
83.040, 0.196
83.050, 0.134
83.060, 0.088
83.070, 0.058
83.080, 0.040
83.090, 0.033
83.100, 0.031
83.110, 0.033
83.120, 0.038
83.130, 0.045
83.140, 0.054
83.150, 0.067
83.160, 0.087
83.170, 0.114
83.180, 0.151
83.190, 0.195
83.200, 0.245
83.210, 0.297
83.220, 0.346
83.230, 0.390
83.240, 0.427
83.250, 0.456
83.260, 0.476
83.270, 0.487
83.280, 0.486
83.290, 0.472
83.300, 0.443
83.310, 0.399
83.320, 0.345
83.330, 0.284
83.340, 0.225
83.350, 0.173
83.360, 0.132
83.370, 0.105
83.380, 0.093
83.390, 0.095
83.400, 0.108
83.410, 0.131
83.420, 0.160
83.430, 0.193
83.440, 0.226
83.450, 0.257
83.460, 0.286
83.470, 0.311
83.480, 0.333
83.490, 0.353
83.500, 0.372
83.510, 0.391
83.520, 0.408
83.530, 0.422
83.540, 0.430
83.550, 0.429
83.560, 0.418
83.570, 0.397
83.580, 0.366
83.590, 0.329
83.600, 0.290
83.610, 0.253
83.620, 0.223
83.630, 0.202
83.640, 0.193
83.650, 0.193
83.660, 0.202
83.670, 0.216
83.680, 0.231
83.690, 0.246
83.700, 0.259
83.710, 0.274
83.720, 0.294
83.730, 0.324
83.740, 0.366
83.750, 0.422
83.760, 0.491
83.770, 0.567
83.780, 0.644
83.790, 0.715
83.800, 0.770
83.810, 0.801
83.820, 0.803
83.830, 0.773
83.840, 0.715
83.850, 0.636
83.860, 0.546
83.870, 0.456
83.880, 0.375
83.890, 0.310
83.900, 0.262
83.910, 0.230
83.920, 0.209
83.930, 0.197
83.940, 0.189
83.950, 0.185
83.960, 0.185
83.970, 0.192
83.980, 0.207
83.990, 0.232
84.000, 0.267
84.010, 0.312
84.020, 0.364
84.030, 0.419
84.040, 0.473
84.050, 0.520
84.060, 0.556
84.070, 0.573
84.080, 0.571
84.090, 0.550
84.100, 0.513
84.110, 0.469
84.120, 0.426
84.130, 0.392
84.140, 0.369
84.150, 0.359
84.160, 0.358
84.170, 0.361
84.180, 0.362
84.190, 0.360
84.200, 0.357
84.210, 0.357
84.220, 0.368
84.230, 0.395
84.240, 0.444
84.250, 0.515
84.260, 0.605
84.270, 0.706
84.280, 0.807
84.290, 0.896
84.300, 0.962
84.310, 0.996
84.320, 0.995
84.330, 0.962
84.340, 0.904
84.350, 0.834
84.360, 0.762
84.370, 0.699
84.380, 0.649
84.390, 0.615
84.400, 0.595
84.410, 0.591
84.420, 0.603
84.430, 0.632
84.440, 0.677
84.450, 0.736
84.460, 0.803
84.470, 0.868
84.480, 0.921
84.490, 0.954
84.500, 0.962
84.510, 0.946
84.520, 0.914
84.530, 0.874
84.540, 0.836
84.550, 0.808
84.560, 0.794
84.570, 0.793
84.580, 0.803
84.590, 0.817
84.600, 0.830
84.610, 0.834
84.620, 0.826
84.630, 0.802
84.640, 0.762
84.650, 0.710
84.660, 0.654
84.670, 0.602
84.680, 0.562
84.690, 0.539
84.700, 0.535
84.710, 0.545
84.720, 0.562
84.730, 0.578
84.740, 0.583
84.750, 0.572
84.760, 0.544
84.770, 0.501
84.780, 0.450
84.790, 0.399
84.800, 0.359
84.810, 0.338
84.820, 0.341
84.830, 0.371
84.840, 0.426
84.850, 0.498
84.860, 0.578
84.870, 0.653
84.880, 0.709
84.890, 0.739
84.900, 0.735
84.910, 0.699
84.920, 0.637
84.930, 0.556
84.940, 0.469
84.950, 0.384
84.960, 0.308
84.970, 0.245
84.980, 0.196
84.990, 0.158
85.000, 0.129
85.010, 0.108
85.020, 0.091
85.030, 0.079
85.040, 0.071
85.050, 0.067
85.060, 0.067
85.070, 0.071
85.080, 0.082
85.090, 0.098
85.100, 0.121
85.110, 0.147
85.120, 0.176
85.130, 0.204
85.140, 0.226
85.150, 0.241
85.160, 0.244
85.170, 0.236
85.180, 0.218
85.190, 0.192
85.200, 0.161
85.210, 0.131
85.220, 0.104
85.230, 0.084
85.240, 0.069
85.250, 0.061
85.260, 0.057
85.270, 0.054
85.280, 0.052
85.290, 0.049
85.300, 0.044
85.310, 0.038
85.320, 0.032
85.330, 0.026
85.340, 0.023
85.350, 0.022
85.360, 0.025
85.370, 0.031
85.380, 0.040
85.390, 0.052
85.400, 0.065
85.410, 0.077
85.420, 0.087
85.430, 0.093
85.440, 0.095
85.450, 0.093
85.460, 0.088
85.470, 0.080
85.480, 0.072
85.490, 0.065
85.500, 0.058
85.510, 0.052
85.520, 0.048
85.530, 0.044
85.540, 0.039
85.550, 0.035
85.560, 0.031
85.570, 0.028
85.580, 0.028
85.590, 0.031
85.600, 0.042
85.610, 0.064
85.620, 0.102
85.630, 0.162
85.640, 0.249
85.650, 0.364
85.660, 0.505
85.670, 0.664
85.680, 0.826
85.690, 0.973
85.700, 1.085
85.710, 1.148
85.720, 1.154
85.730, 1.105
85.740, 1.017
85.750, 0.908
85.760, 0.803
85.770, 0.720
85.780, 0.673
85.790, 0.665
85.800, 0.688
85.810, 0.729
85.820, 0.771
85.830, 0.798
85.840, 0.802
85.850, 0.782
85.860, 0.746
85.870, 0.703
85.880, 0.666
85.890, 0.642
85.900, 0.638
85.910, 0.655
85.920, 0.692
85.930, 0.746
85.940, 0.811
85.950, 0.879
85.960, 0.943
85.970, 0.997
85.980, 1.038
85.990, 1.068
86.000, 1.093
86.010, 1.121
86.020, 1.160
86.030, 1.215
86.040, 1.284
86.050, 1.360
86.060, 1.432
86.070, 1.482
86.080, 1.498
86.090, 1.467
86.100, 1.387
86.110, 1.263
86.120, 1.108
86.130, 0.940
86.140, 0.778
86.150, 0.638
86.160, 0.531
86.170, 0.460
86.180, 0.426
86.190, 0.428
86.200, 0.462
86.210, 0.525
86.220, 0.612
86.230, 0.718
86.240, 0.835
86.250, 0.954
86.260, 1.067
86.270, 1.164
86.280, 1.240
86.290, 1.291
86.300, 1.316
86.310, 1.318
86.320, 1.298
86.330, 1.260
86.340, 1.204
86.350, 1.133
86.360, 1.044
86.370, 0.939
86.380, 0.821
86.390, 0.694
86.400, 0.566
86.410, 0.445
86.420, 0.339
86.430, 0.253
86.440, 0.192
86.450, 0.155
86.460, 0.142
86.470, 0.151
86.480, 0.178
86.490, 0.218
86.500, 0.267
86.510, 0.319
86.520, 0.368
86.530, 0.409
86.540, 0.436
86.550, 0.448
86.560, 0.445
86.570, 0.429
86.580, 0.403
86.590, 0.373
86.600, 0.340
86.610, 0.309
86.620, 0.280
86.630, 0.252
86.640, 0.226
86.650, 0.199
86.660, 0.171
86.670, 0.142
86.680, 0.114
86.690, 0.088
86.700, 0.065
86.710, 0.045
86.720, 0.030
86.730, 0.019
86.740, 0.011
86.750, 0.006
86.760, 0.003
86.770, 0.002
86.780, 0.001
86.790, 0.000
86.800, 0.000
86.810, 0.000
86.820, 0.000
86.830, 0.000
86.840, 0.000
86.850, 0.000
86.860, 0.000
86.870, 0.000
86.880, 0.000
86.890, 0.000
86.900, 0.000
86.910, 0.000
86.920, 0.000
86.930, 0.001
86.940, 0.001
86.950, 0.002
86.960, 0.003
86.970, 0.004
86.980, 0.006
86.990, 0.007
87.000, 0.008
87.010, 0.009
87.020, 0.009
87.030, 0.009
87.040, 0.008
87.050, 0.007
87.060, 0.005
87.070, 0.004
87.080, 0.003
87.090, 0.002
87.100, 0.001
87.110, 0.001
87.120, 0.000
87.130, 0.000
87.140, 0.000
87.150, 0.000
87.160, 0.000
87.170, 0.000
87.180, 0.000
87.190, 0.000
87.200, 0.000
87.210, 0.001
87.220, 0.001
87.230, 0.002
87.240, 0.002
87.250, 0.003
87.260, 0.003
87.270, 0.004
87.280, 0.004
87.290, 0.005
87.300, 0.004
87.310, 0.004
87.320, 0.003
87.330, 0.003
87.340, 0.002
87.350, 0.002
87.360, 0.001
87.370, 0.001
87.380, 0.001
87.390, 0.002
87.400, 0.003
87.410, 0.005
87.420, 0.008
87.430, 0.011
87.440, 0.014
87.450, 0.018
87.460, 0.023
87.470, 0.027
87.480, 0.032
87.490, 0.039
87.500, 0.051
87.510, 0.070
87.520, 0.102
87.530, 0.148
87.540, 0.214
87.550, 0.298
87.560, 0.398
87.570, 0.508
87.580, 0.617
87.590, 0.717
87.600, 0.800
87.610, 0.862
87.620, 0.905
87.630, 0.936
87.640, 0.961
87.650, 0.987
87.660, 1.015
87.670, 1.043
87.680, 1.065
87.690, 1.077
87.700, 1.074
87.710, 1.057
87.720, 1.030
87.730, 0.996
87.740, 0.960
87.750, 0.924
87.760, 0.887
87.770, 0.849
87.780, 0.808
87.790, 0.764
87.800, 0.718
87.810, 0.674
87.820, 0.634
87.830, 0.601
87.840, 0.578
87.850, 0.564
87.860, 0.560
87.870, 0.565
87.880, 0.579
87.890, 0.605
87.900, 0.643
87.910, 0.694
87.920, 0.757
87.930, 0.825
87.940, 0.891
87.950, 0.945
87.960, 0.980
87.970, 0.995
87.980, 0.993
87.990, 0.985
88.000, 0.983
88.010, 0.997
88.020, 1.030
88.030, 1.080
88.040, 1.135
88.050, 1.179
88.060, 1.199
88.070, 1.181
88.080, 1.124
88.090, 1.033
88.100, 0.923
88.110, 0.813
88.120, 0.724
88.130, 0.676
88.140, 0.679
88.150, 0.738
88.160, 0.847
88.170, 0.988
88.180, 1.141
88.190, 1.279
88.200, 1.378
88.210, 1.423
88.220, 1.405
88.230, 1.330
88.240, 1.214
88.250, 1.081
88.260, 0.955
88.270, 0.859
88.280, 0.809
88.290, 0.810
88.300, 0.858
88.310, 0.938
88.320, 1.026
88.330, 1.100
88.340, 1.139
88.350, 1.129
88.360, 1.070
88.370, 0.970
88.380, 0.847
88.390, 0.720
88.400, 0.609
88.410, 0.528
88.420, 0.484
88.430, 0.476
88.440, 0.500
88.450, 0.545
88.460, 0.596
88.470, 0.643
88.480, 0.673
88.490, 0.681
88.500, 0.665
88.510, 0.630
88.520, 0.581
88.530, 0.526
88.540, 0.474
88.550, 0.432
88.560, 0.403
88.570, 0.389
88.580, 0.391
88.590, 0.403
88.600, 0.421
88.610, 0.437
88.620, 0.447
88.630, 0.446
88.640, 0.434
88.650, 0.414
88.660, 0.389
88.670, 0.366
88.680, 0.349
88.690, 0.343
88.700, 0.348
88.710, 0.366
88.720, 0.394
88.730, 0.431
88.740, 0.477
88.750, 0.528
88.760, 0.583
88.770, 0.642
88.780, 0.703
88.790, 0.763
88.800, 0.819
88.810, 0.869
88.820, 0.910
88.830, 0.939
88.840, 0.955
88.850, 0.959
88.860, 0.953
88.870, 0.938
88.880, 0.915
88.890, 0.883
88.900, 0.839
88.910, 0.784
88.920, 0.717
88.930, 0.639
88.940, 0.558
88.950, 0.477
88.960, 0.406
88.970, 0.348
88.980, 0.309
88.990, 0.290
89.000, 0.288
89.010, 0.301
89.020, 0.323
89.030, 0.350
89.040, 0.378
89.050, 0.404
89.060, 0.425
89.070, 0.441
89.080, 0.452
89.090, 0.460
89.100, 0.464
89.110, 0.466
89.120, 0.465
89.130, 0.462
89.140, 0.457
89.150, 0.448
89.160, 0.437
89.170, 0.420
89.180, 0.396
89.190, 0.366
89.200, 0.329
89.210, 0.286
89.220, 0.240
89.230, 0.194
89.240, 0.151
89.250, 0.115
89.260, 0.086
89.270, 0.066
89.280, 0.054
89.290, 0.049
89.300, 0.047
89.310, 0.049
89.320, 0.050
89.330, 0.051
89.340, 0.050
89.350, 0.049
89.360, 0.047
89.370, 0.047
89.380, 0.051
89.390, 0.058
89.400, 0.070
89.410, 0.086
89.420, 0.103
89.430, 0.122
89.440, 0.137
89.450, 0.149
89.460, 0.154
89.470, 0.154
89.480, 0.148
89.490, 0.140
89.500, 0.134
89.510, 0.133
89.520, 0.144
89.530, 0.169
89.540, 0.212
89.550, 0.270
89.560, 0.341
89.570, 0.417
89.580, 0.490
89.590, 0.553
89.600, 0.601
89.610, 0.635
89.620, 0.657
89.630, 0.673
89.640, 0.690
89.650, 0.712
89.660, 0.739
89.670, 0.773
89.680, 0.808
89.690, 0.843
89.700, 0.874
89.710, 0.897
89.720, 0.912
89.730, 0.916
89.740, 0.911
89.750, 0.900
89.760, 0.886
89.770, 0.874
89.780, 0.868
89.790, 0.866
89.800, 0.866
89.810, 0.861
89.820, 0.846
89.830, 0.819
89.840, 0.780
89.850, 0.732
89.860, 0.681
89.870, 0.632
89.880, 0.592
89.890, 0.564
89.900, 0.549
89.910, 0.549
89.920, 0.560
89.930, 0.577
89.940, 0.595
89.950, 0.608
89.960, 0.613
89.970, 0.608
89.980, 0.594
89.990, 0.573
90.000, 0.548
##END=



